Wavelength[nm],T% in an f/6 beam
300.0 ,0
300.1 ,0
300.2 ,0
300.3 ,0
300.4 ,0
300.5 ,0
300.6 ,0
300.7 ,0
300.8 ,0
300.9 ,0
301.0 ,0
301.1 ,0
301.2 ,0
301.3 ,0
301.4 ,0
301.5 ,0
301.6 ,0
301.7 ,0
301.8 ,0
301.9 ,0
302.0 ,0
302.1 ,0
302.2 ,0
302.3 ,0
302.4 ,0
302.5 ,0
302.6 ,0
302.7 ,0
302.8 ,0
302.9 ,0
303.0 ,0
303.1 ,0
303.2 ,0
303.3 ,0
303.4 ,0
303.5 ,0
303.6 ,0
303.7 ,0
303.8 ,0
303.9 ,0
304.0 ,0
304.1 ,0
304.2 ,0
304.3 ,0
304.4 ,0
304.5 ,0
304.6 ,0
304.7 ,0
304.8 ,0
304.9 ,0
305.0 ,0
305.1 ,0
305.2 ,0
305.3 ,0
305.4 ,0
305.5 ,0
305.6 ,0
305.7 ,0
305.8 ,0
305.9 ,0
306.0 ,0
306.1 ,0
306.2 ,0
306.3 ,0
306.4 ,0
306.5 ,0
306.6 ,0
306.7 ,0
306.8 ,0
306.9 ,0
307.0 ,0
307.1 ,0
307.2 ,0
307.3 ,0
307.4 ,0
307.5 ,0
307.6 ,0
307.7 ,0
307.8 ,0
307.9 ,0
308.0 ,0
308.1 ,0
308.2 ,0
308.3 ,0
308.4 ,0
308.5 ,0
308.6 ,0
308.7 ,0
308.8 ,0
308.9 ,0
309.0 ,0
309.1 ,0
309.2 ,0
309.3 ,0
309.4 ,0
309.5 ,0
309.6 ,0
309.7 ,0
309.8 ,0
309.9 ,0
310.0 ,0
310.1 ,0
310.2 ,0
310.3 ,0
310.4 ,0
310.5 ,0
310.6 ,0
310.7 ,0
310.8 ,0
310.9 ,0
311.0 ,0
311.1 ,0
311.2 ,0
311.3 ,0
311.4 ,0
311.5 ,0
311.6 ,0
311.7 ,0
311.8 ,0
311.9 ,0
312.0 ,0
312.1 ,0
312.2 ,0
312.3 ,0
312.4 ,0
312.5 ,0
312.6 ,0
312.7 ,0
312.8 ,0
312.9 ,0
313.0 ,0
313.1 ,0
313.2 ,0
313.3 ,0
313.4 ,0
313.5 ,0
313.6 ,0
313.7 ,0
313.8 ,0
313.9 ,0
314.0 ,0
314.1 ,0
314.2 ,0
314.3 ,0
314.4 ,0
314.5 ,0
314.6 ,0
314.7 ,0
314.8 ,0
314.9 ,0
315.0 ,0
315.1 ,0
315.2 ,0
315.3 ,0
315.4 ,0
315.5 ,0
315.6 ,0
315.7 ,0
315.8 ,0
315.9 ,0
316.0 ,0
316.1 ,0
316.2 ,0
316.3 ,0
316.4 ,0
316.5 ,0
316.6 ,0
316.7 ,0
316.8 ,0
316.9 ,0
317.0 ,0
317.1 ,0
317.2 ,0
317.3 ,0
317.4 ,0
317.5 ,0
317.6 ,0
317.7 ,0
317.8 ,0
317.9 ,0
318.0 ,0
318.1 ,0
318.2 ,0
318.3 ,0
318.4 ,0
318.5 ,0
318.6 ,0
318.7 ,0
318.8 ,0
318.9 ,0
319.0 ,0
319.1 ,0
319.2 ,0
319.3 ,0
319.4 ,0
319.5 ,0
319.6 ,0
319.7 ,0
319.8 ,0
319.9 ,0
320.0 ,0
320.1 ,0
320.2 ,0
320.3 ,0
320.4 ,0
320.5 ,0
320.6 ,0
320.7 ,0
320.8 ,0
320.9 ,0
321.0 ,0
321.1 ,0
321.2 ,0
321.3 ,0
321.4 ,0
321.5 ,0
321.6 ,0
321.7 ,0
321.8 ,0
321.9 ,0
322.0 ,0
322.1 ,0
322.2 ,0
322.3 ,0
322.4 ,0
322.5 ,0
322.6 ,0
322.7 ,0
322.8 ,0
322.9 ,0
323.0 ,0
323.1 ,0
323.2 ,0
323.3 ,0
323.4 ,0
323.5 ,0
323.6 ,0
323.7 ,0
323.8 ,0
323.9 ,0
324.0 ,0
324.1 ,0
324.2 ,0
324.3 ,0
324.4 ,0
324.5 ,0
324.6 ,0
324.7 ,0
324.8 ,0
324.9 ,0
325.0 ,0
325.1 ,0
325.2 ,0
325.3 ,0
325.4 ,0
325.5 ,0
325.6 ,0
325.7 ,0
325.8 ,0
325.9 ,0
326.0 ,0
326.1 ,0
326.2 ,0
326.3 ,0
326.4 ,0
326.5 ,0
326.6 ,0
326.7 ,0
326.8 ,0
326.9 ,0
327.0 ,0
327.1 ,0
327.2 ,0
327.3 ,0
327.4 ,0
327.5 ,0
327.6 ,0
327.7 ,0
327.8 ,0
327.9 ,0
328.0 ,0
328.1 ,0
328.2 ,0
328.3 ,0
328.4 ,0
328.5 ,0
328.6 ,0
328.7 ,0
328.8 ,0
328.9 ,0
329.0 ,0
329.1 ,0
329.2 ,0
329.3 ,0
329.4 ,0
329.5 ,0
329.6 ,0
329.7 ,0
329.8 ,0
329.9 ,0
330.0 ,0
330.1 ,0
330.2 ,0
330.3 ,0
330.4 ,0
330.5 ,0
330.6 ,0
330.7 ,0
330.8 ,0
330.9 ,0
331.0 ,0
331.1 ,0
331.2 ,0
331.3 ,0
331.4 ,0
331.5 ,0
331.6 ,0
331.7 ,0
331.8 ,0
331.9 ,0
332.0 ,0
332.1 ,0
332.2 ,0
332.3 ,0
332.4 ,0
332.5 ,0
332.6 ,0
332.7 ,0
332.8 ,0
332.9 ,0
333.0 ,0
333.1 ,0
333.2 ,0
333.3 ,0
333.4 ,0
333.5 ,0
333.6 ,0
333.7 ,0
333.8 ,0
333.9 ,0
334.0 ,0
334.1 ,0
334.2 ,0
334.3 ,0
334.4 ,0
334.5 ,0
334.6 ,0
334.7 ,0
334.8 ,0
334.9 ,0
335.0 ,0
335.1 ,0
335.2 ,0
335.3 ,0
335.4 ,0
335.5 ,0
335.6 ,0
335.7 ,0
335.8 ,0
335.9 ,0
336.0 ,0
336.1 ,0
336.2 ,0
336.3 ,0
336.4 ,0
336.5 ,0
336.6 ,0
336.7 ,0
336.8 ,0
336.9 ,0
337.0 ,0
337.1 ,0
337.2 ,0
337.3 ,0
337.4 ,0
337.5 ,0
337.6 ,0
337.7 ,0
337.8 ,0
337.9 ,0
338.0 ,0
338.1 ,0
338.2 ,0
338.3 ,0
338.4 ,0
338.5 ,0.00001
338.6 ,0.00001
338.7 ,0.00001
338.8 ,0
338.9 ,0
339.0 ,0
339.1 ,0
339.2 ,0
339.3 ,0
339.4 ,0
339.5 ,0
339.6 ,0
339.7 ,0.00001
339.8 ,0.00001
339.9 ,0.00001
340.0 ,0
340.1 ,0
340.2 ,0
340.3 ,0
340.4 ,0
340.5 ,0
340.6 ,0
340.7 ,0
340.8 ,0
340.9 ,0
341.0 ,0
341.1 ,0
341.2 ,0
341.3 ,0.00001
341.4 ,0.00001
341.5 ,0.00001
341.6 ,0
341.7 ,0
341.8 ,0
341.9 ,0
342.0 ,0
342.1 ,0
342.2 ,0
342.3 ,0
342.4 ,0
342.5 ,0
342.6 ,0
342.7 ,0
342.8 ,0
342.9 ,0
343.0 ,0
343.1 ,0
343.2 ,0
343.3 ,0
343.4 ,0
343.5 ,0
343.6 ,0
343.7 ,0
343.8 ,0
343.9 ,0
344.0 ,0
344.1 ,0
344.2 ,0
344.3 ,0
344.4 ,0
344.5 ,0
344.6 ,0
344.7 ,0
344.8 ,0
344.9 ,0
345.0 ,0
345.1 ,0
345.2 ,0
345.3 ,0
345.4 ,0
345.5 ,0
345.6 ,0
345.7 ,0
345.8 ,0
345.9 ,0
346.0 ,0
346.1 ,0
346.2 ,0
346.3 ,0
346.4 ,0
346.5 ,0
346.6 ,0
346.7 ,0
346.8 ,0
346.9 ,0
347.0 ,0
347.1 ,0
347.2 ,0
347.3 ,0
347.4 ,0
347.5 ,0
347.6 ,0
347.7 ,0
347.8 ,0
347.9 ,0
348.0 ,0
348.1 ,0
348.2 ,0
348.3 ,0
348.4 ,0
348.5 ,0
348.6 ,0
348.7 ,0
348.8 ,0
348.9 ,0
349.0 ,0
349.1 ,0
349.2 ,0
349.3 ,0
349.4 ,0
349.5 ,0
349.6 ,0
349.7 ,0
349.8 ,0
349.9 ,0
350.0 ,0
350.1 ,0
350.2 ,0
350.3 ,0
350.4 ,0
350.5 ,0
350.6 ,0
350.7 ,0
350.8 ,0
350.9 ,0
351.0 ,0
351.1 ,0
351.2 ,0
351.3 ,0
351.4 ,0
351.5 ,0
351.6 ,0
351.7 ,0
351.8 ,0
351.9 ,0
352.0 ,0
352.1 ,0
352.2 ,0
352.3 ,0
352.4 ,0
352.5 ,0
352.6 ,0
352.7 ,0
352.8 ,0
352.9 ,0
353.0 ,0
353.1 ,0
353.2 ,0
353.3 ,0
353.4 ,0
353.5 ,0
353.6 ,0
353.7 ,0
353.8 ,0
353.9 ,0
354.0 ,0
354.1 ,0
354.2 ,0
354.3 ,0
354.4 ,0
354.5 ,0
354.6 ,0
354.7 ,0
354.8 ,0
354.9 ,0
355.0 ,0
355.1 ,0
355.2 ,0
355.3 ,0
355.4 ,0
355.5 ,0
355.6 ,0
355.7 ,0
355.8 ,0
355.9 ,0.00001
356.0 ,0
356.1 ,0
356.2 ,0
356.3 ,0
356.4 ,0
356.5 ,0
356.6 ,0
356.7 ,0
356.8 ,0
356.9 ,0
357.0 ,0
357.1 ,0
357.2 ,0
357.3 ,0
357.4 ,0
357.5 ,0
357.6 ,0
357.7 ,0
357.8 ,0
357.9 ,0
358.0 ,0
358.1 ,0
358.2 ,0.00001
358.3 ,0.00004
358.4 ,0.00004
358.5 ,0.00004
358.6 ,0.00001
358.7 ,0
358.8 ,0
358.9 ,0
359.0 ,0
359.1 ,0
359.2 ,0
359.3 ,0
359.4 ,0
359.5 ,0
359.6 ,0.00001
359.7 ,0.00001
359.8 ,0.00002
359.9 ,0.00006
360.0 ,0.00018
360.1 ,0.00023
360.2 ,0.00023
360.3 ,0.00015
360.4 ,0.00006
360.5 ,0.00003
360.6 ,0.00003
360.7 ,0.00002
360.8 ,0.00002
360.9 ,0.00002
361.0 ,0.00002
361.1 ,0.00003
361.2 ,0.00004
361.3 ,0.00006
361.4 ,0.0001
361.5 ,0.00021
361.6 ,0.0003
361.7 ,0.00031
361.8 ,0.00025
361.9 ,0.00013
362.0 ,0.00007
362.1 ,0.00004
362.2 ,0.00003
362.3 ,0.00002
362.4 ,0.00002
362.5 ,0.00002
362.6 ,0.00001
362.7 ,0.00001
362.8 ,0.00001
362.9 ,0.00001
363.0 ,0.00002
363.1 ,0.00002
363.2 ,0.00003
363.3 ,0.00004
363.4 ,0.00006
363.5 ,0.00009
363.6 ,0.00016
363.7 ,0.00031
363.8 ,0.00058
363.9 ,0.00083
364.0 ,0.00092
364.1 ,0.00081
364.2 ,0.00059
364.3 ,0.00042
364.4 ,0.00032
364.5 ,0.00027
364.6 ,0.00025
364.7 ,0.00024
364.8 ,0.00024
364.9 ,0.00025
365.0 ,0.00027
365.1 ,0.00027
365.2 ,0.00028
365.3 ,0.00031
365.4 ,0.00034
365.5 ,0.00038
365.6 ,0.00045
365.7 ,0.00052
365.8 ,0.00062
365.9 ,0.00074
366.0 ,0.00086
366.1 ,0.001
366.2 ,0.00111
366.3 ,0.0012
366.4 ,0.00126
366.5 ,0.00129
366.6 ,0.00131
366.7 ,0.00133
366.8 ,0.00134
366.9 ,0.00137
367.0 ,0.0014
367.1 ,0.00143
367.2 ,0.00147
367.3 ,0.00151
367.4 ,0.00155
367.5 ,0.00158
367.6 ,0.00161
367.7 ,0.00164
367.8 ,0.00166
367.9 ,0.00168
368.0 ,0.0017
368.1 ,0.00171
368.2 ,0.00173
368.3 ,0.00175
368.4 ,0.00177
368.5 ,0.0018
368.6 ,0.00184
368.7 ,0.00188
368.8 ,0.00192
368.9 ,0.00197
369.0 ,0.00202
369.1 ,0.00206
369.2 ,0.00211
369.3 ,0.00215
369.4 ,0.00219
369.5 ,0.00222
369.6 ,0.00225
369.7 ,0.00227
369.8 ,0.0023
369.9 ,0.00233
370.0 ,0.00237
370.1 ,0.00243
370.2 ,0.00251
370.3 ,0.0026
370.4 ,0.00271
370.5 ,0.00284
370.6 ,0.00299
370.7 ,0.00315
370.8 ,0.00334
370.9 ,0.00353
371.0 ,0.00374
371.1 ,0.00394
371.2 ,0.00416
371.3 ,0.00438
371.4 ,0.00462
371.5 ,0.00486
371.6 ,0.0051
371.7 ,0.00534
371.8 ,0.00557
371.9 ,0.0058
372.0 ,0.00603
372.1 ,0.00624
372.2 ,0.00645
372.3 ,0.00665
372.4 ,0.00686
372.5 ,0.00706
372.6 ,0.00726
372.7 ,0.00747
372.8 ,0.00768
372.9 ,0.00789
373.0 ,0.00812
373.1 ,0.00835
373.2 ,0.00859
373.3 ,0.00885
373.4 ,0.00912
373.5 ,0.00941
373.6 ,0.00973
373.7 ,0.01007
373.8 ,0.01043
373.9 ,0.01083
374.0 ,0.01125
374.1 ,0.01171
374.2 ,0.01221
374.3 ,0.01275
374.4 ,0.01333
374.5 ,0.01396
374.6 ,0.01463
374.7 ,0.01536
374.8 ,0.01613
374.9 ,0.01695
375.0 ,0.01784
375.1 ,0.01876
375.2 ,0.01974
375.3 ,0.02078
375.4 ,0.02188
375.5 ,0.02303
375.6 ,0.02425
375.7 ,0.02553
375.8 ,0.02687
375.9 ,0.02828
376.0 ,0.02976
376.1 ,0.03131
376.2 ,0.03294
376.3 ,0.03466
376.4 ,0.03647
376.5 ,0.03838
376.6 ,0.04041
376.7 ,0.04256
376.8 ,0.04485
376.9 ,0.0473
377.0 ,0.04992
377.1 ,0.05273
377.2 ,0.05576
377.3 ,0.05902
377.4 ,0.06256
377.5 ,0.06639
377.6 ,0.07055
377.7 ,0.07507
377.8 ,0.08
377.9 ,0.08538
378.0 ,0.09126
378.1 ,0.09768
378.2 ,0.10471
378.3 ,0.11239
378.4 ,0.12081
378.5 ,0.13003
378.6 ,0.14013
378.7 ,0.15119
378.8 ,0.16331
378.9 ,0.1766
379.0 ,0.19115
379.1 ,0.20709
379.2 ,0.22456
379.3 ,0.24369
379.4 ,0.26467
379.5 ,0.28767
379.6 ,0.3129
379.7 ,0.3406
379.8 ,0.37101
379.9 ,0.40446
380.0 ,0.4413
380.1 ,0.48147
380.2 ,0.52579
380.3 ,0.57478
380.4 ,0.62907
380.5 ,0.68935
380.6 ,0.75644
380.7 ,0.8313
380.8 ,0.91502
380.9 ,1.00898
381.0 ,1.11467
381.1 ,1.23389
381.2 ,1.36879
381.3 ,1.52182
381.4 ,1.69604
381.5 ,1.89489
381.6 ,2.12254
381.7 ,2.38388
381.8 ,2.68465
381.9 ,3.03198
382.0 ,3.43403
382.1 ,3.90082
382.2 ,4.44389
382.3 ,5.07692
382.4 ,5.81681
382.5 ,6.68288
382.6 ,7.69813
382.7 ,8.88944
382.8 ,10.28753
382.9 ,11.9289
383.0 ,13.85324
383.1 ,16.1037
383.2 ,18.72714
383.3 ,21.76887
383.4 ,25.27313
383.5 ,29.27198
383.6 ,33.78153
383.7 ,38.79256
383.8 ,44.26028
383.9 ,50.10461
384.0 ,56.19814
384.1 ,62.37871
384.2 ,68.45765
384.3 ,74.24055
384.4 ,79.55621
384.5 ,84.2666
384.6 ,88.28778
384.7 ,91.59219
384.8 ,94.20262
384.9 ,96.1833
385.0 ,97.6206
385.1 ,98.60354
385.2 ,99.2429
385.3 ,99.62522
385.4 ,99.82512
385.5 ,99.90312
385.6 ,99.90636
385.7 ,99.86973
385.8 ,99.8176
385.9 ,99.7657
386.0 ,99.72305
386.1 ,99.69565
386.2 ,99.68164
386.3 ,99.67889
386.4 ,99.68383
386.5 ,99.69242
386.6 ,99.70064
386.7 ,99.70506
386.8 ,99.70322
386.9 ,99.69374
387.0 ,99.6765
387.1 ,99.65134
387.2 ,99.62173
387.3 ,99.59089
387.4 ,99.56266
387.5 ,99.54135
387.6 ,99.53129
387.7 ,99.53626
387.8 ,99.55907
387.9 ,99.60075
388.0 ,99.65974
388.1 ,99.72945
388.2 ,99.80145
388.3 ,99.85977
388.4 ,99.88094
388.5 ,99.83238
388.6 ,99.67115
388.7 ,99.34304
388.8 ,98.78275
388.9 ,97.91451
389.0 ,96.65646
389.1 ,94.92921
389.2 ,92.65453
389.3 ,89.77679
389.4 ,86.26697
389.5 ,82.13731
389.6 ,77.44305
389.7 ,72.28214
389.8 ,66.78876
389.9 ,61.11274
390.0 ,55.41322
390.1 ,49.87952
390.2 ,44.58578
390.3 ,39.6233
390.4 ,35.04775
390.5 ,30.89069
390.6 ,27.15828
390.7 ,23.83877
390.8 ,20.90902
390.9 ,18.33604
391.0 ,16.08615
391.1 ,14.12426
391.2 ,12.41614
391.3 ,10.93053
391.4 ,9.63774
391.5 ,8.51258
391.6 ,7.53244
391.7 ,6.67759
391.8 ,5.93115
391.9 ,5.27794
392.0 ,4.70551
392.1 ,4.20287
392.2 ,3.76083
392.3 ,3.37151
392.4 ,3.0278
392.5 ,2.72393
392.6 ,2.45483
392.7 ,2.21613
392.8 ,2.00412
392.9 ,1.81541
393.0 ,1.64724
393.1 ,1.49725
393.2 ,1.36319
393.3 ,1.24324
393.4 ,1.1357
393.5 ,1.03918
393.6 ,0.95245
393.7 ,0.87439
393.8 ,0.80407
393.9 ,0.74059
394.0 ,0.68322
394.1 ,0.63129
394.2 ,0.58422
394.3 ,0.54151
394.4 ,0.50267
394.5 ,0.4673
394.6 ,0.43505
394.7 ,0.40558
394.8 ,0.37862
394.9 ,0.3539
395.0 ,0.3312
395.1 ,0.31043
395.2 ,0.29128
395.3 ,0.2736
395.4 ,0.25723
395.5 ,0.24205
395.6 ,0.22796
395.7 ,0.21486
395.8 ,0.20265
395.9 ,0.19126
396.0 ,0.18062
396.1 ,0.17066
396.2 ,0.16133
396.3 ,0.15258
396.4 ,0.14437
396.5 ,0.13665
396.6 ,0.12939
396.7 ,0.12257
396.8 ,0.11615
396.9 ,0.11011
397.0 ,0.10441
397.1 ,0.09906
397.2 ,0.09401
397.3 ,0.08927
397.4 ,0.0848
397.5 ,0.08059
397.6 ,0.07664
397.7 ,0.07292
397.8 ,0.06942
397.9 ,0.06613
398.0 ,0.06304
398.1 ,0.06014
398.2 ,0.05741
398.3 ,0.05485
398.4 ,0.05245
398.5 ,0.05019
398.6 ,0.04807
398.7 ,0.04608
398.8 ,0.04421
398.9 ,0.04246
399.0 ,0.0408
399.1 ,0.03925
399.2 ,0.03779
399.3 ,0.03642
399.4 ,0.03512
399.5 ,0.0339
399.6 ,0.03274
399.7 ,0.03165
399.8 ,0.03062
399.9 ,0.02964
400.0 ,0.02872
400.1 ,0.02784
400.2 ,0.02701
400.3 ,0.02622
400.4 ,0.02546
400.5 ,0.02474
400.6 ,0.02404
400.7 ,0.02338
400.8 ,0.02274
400.9 ,0.02212
401.0 ,0.02153
401.1 ,0.02096
401.2 ,0.0204
401.3 ,0.01987
401.4 ,0.01935
401.5 ,0.01885
401.6 ,0.01836
401.7 ,0.01789
401.8 ,0.01743
401.9 ,0.01699
402.0 ,0.01656
402.1 ,0.01614
402.2 ,0.01574
402.3 ,0.01535
402.4 ,0.01497
402.5 ,0.0146
402.6 ,0.01424
402.7 ,0.0139
402.8 ,0.01356
402.9 ,0.01324
403.0 ,0.01293
403.1 ,0.01263
403.2 ,0.01234
403.3 ,0.01206
403.4 ,0.01179
403.5 ,0.01153
403.6 ,0.01128
403.7 ,0.01103
403.8 ,0.0108
403.9 ,0.01057
404.0 ,0.01035
404.1 ,0.01013
404.2 ,0.00992
404.3 ,0.00972
404.4 ,0.00952
404.5 ,0.00933
404.6 ,0.00914
404.7 ,0.00896
404.8 ,0.00878
404.9 ,0.0086
405.0 ,0.00843
405.1 ,0.00827
405.2 ,0.0081
405.3 ,0.00794
405.4 ,0.00778
405.5 ,0.00762
405.6 ,0.00747
405.7 ,0.00732
405.8 ,0.00717
405.9 ,0.00702
406.0 ,0.00687
406.1 ,0.00673
406.2 ,0.00659
406.3 ,0.00645
406.4 ,0.00631
406.5 ,0.00618
406.6 ,0.00605
406.7 ,0.00592
406.8 ,0.00579
406.9 ,0.00567
407.0 ,0.00555
407.1 ,0.00544
407.2 ,0.00533
407.3 ,0.00522
407.4 ,0.00512
407.5 ,0.00502
407.6 ,0.00492
407.7 ,0.00483
407.8 ,0.00474
407.9 ,0.00465
408.0 ,0.00457
408.1 ,0.00449
408.2 ,0.00441
408.3 ,0.00434
408.4 ,0.00427
408.5 ,0.0042
408.6 ,0.00414
408.7 ,0.00407
408.8 ,0.00401
408.9 ,0.00395
409.0 ,0.00389
409.1 ,0.00383
409.2 ,0.00377
409.3 ,0.0037
409.4 ,0.00364
409.5 ,0.00358
409.6 ,0.00352
409.7 ,0.00347
409.8 ,0.00341
409.9 ,0.00336
410.0 ,0.00332
410.1 ,0.00331
410.2 ,0.0033
410.3 ,0.0033
410.4 ,0.00331
410.5 ,0.00332
410.6 ,0.00334
410.7 ,0.00335
410.8 ,0.00337
410.9 ,0.00339
411.0 ,0.0034
411.1 ,0.00341
411.2 ,0.00341
411.3 ,0.00341
411.4 ,0.0034
411.5 ,0.00338
411.6 ,0.00335
411.7 ,0.00331
411.8 ,0.00324
411.9 ,0.00315
412.0 ,0.00305
412.1 ,0.00293
412.2 ,0.0028
412.3 ,0.00266
412.4 ,0.00252
412.5 ,0.00237
412.6 ,0.00221
412.7 ,0.00206
412.8 ,0.00192
412.9 ,0.00178
413.0 ,0.00166
413.1 ,0.00156
413.2 ,0.00147
413.3 ,0.00139
413.4 ,0.00132
413.5 ,0.00127
413.6 ,0.00122
413.7 ,0.00118
413.8 ,0.00115
413.9 ,0.00113
414.0 ,0.00113
414.1 ,0.00108
414.2 ,0.00104
414.3 ,0.00101
414.4 ,0.001
414.5 ,0.001
414.6 ,0.001
414.7 ,0.00102
414.8 ,0.00106
414.9 ,0.0011
415.0 ,0.00116
415.1 ,0.00128
415.2 ,0.00141
415.3 ,0.00154
415.4 ,0.00165
415.5 ,0.00174
415.6 ,0.00177
415.7 ,0.00176
415.8 ,0.00171
415.9 ,0.00162
416.0 ,0.00152
416.1 ,0.00128
416.2 ,0.00106
416.3 ,0.00087
416.4 ,0.00072
416.5 ,0.0006
416.6 ,0.0005
416.7 ,0.00042
416.8 ,0.00036
416.9 ,0.00031
417.0 ,0.00028
417.1 ,0.00027
417.2 ,0.00027
417.3 ,0.00027
417.4 ,0.00028
417.5 ,0.00029
417.6 ,0.00031
417.7 ,0.00034
417.8 ,0.00037
417.9 ,0.0004
418.0 ,0.00045
418.1 ,0.00043
418.2 ,0.00042
418.3 ,0.0004
418.4 ,0.00039
418.5 ,0.00037
418.6 ,0.00035
418.7 ,0.00033
418.8 ,0.0003
418.9 ,0.00027
419.0 ,0.00024
419.1 ,0.00022
419.2 ,0.0002
419.3 ,0.00018
419.4 ,0.00016
419.5 ,0.00014
419.6 ,0.00013
419.7 ,0.00011
419.8 ,0.0001
419.9 ,0.00009
420.0 ,0.00008
420.1 ,0.00008
420.2 ,0.00008
420.3 ,0.00007
420.4 ,0.00007
420.5 ,0.00007
420.6 ,0.00007
420.7 ,0.00007
420.8 ,0.00007
420.9 ,0.00007
421.0 ,0.00007
421.1 ,0.00007
421.2 ,0.00006
421.3 ,0.00006
421.4 ,0.00006
421.5 ,0.00006
421.6 ,0.00006
421.7 ,0.00006
421.8 ,0.00006
421.9 ,0.00006
422.0 ,0.00007
422.1 ,0.00007
422.2 ,0.00008
422.3 ,0.00009
422.4 ,0.0001
422.5 ,0.00011
422.6 ,0.00013
422.7 ,0.00015
422.8 ,0.00017
422.9 ,0.00018
423.0 ,0.0002
423.1 ,0.0002
423.2 ,0.0002
423.3 ,0.00019
423.4 ,0.00018
423.5 ,0.00016
423.6 ,0.00014
423.7 ,0.00012
423.8 ,0.00011
423.9 ,0.00009
424.0 ,0.00008
424.1 ,0.00008
424.2 ,0.00007
424.3 ,0.00007
424.4 ,0.00007
424.5 ,0.00007
424.6 ,0.00007
424.7 ,0.00007
424.8 ,0.00008
424.9 ,0.00008
425.0 ,0.00009
425.1 ,0.00007
425.2 ,0.00006
425.3 ,0.00005
425.4 ,0.00005
425.5 ,0.00004
425.6 ,0.00004
425.7 ,0.00004
425.8 ,0.00004
425.9 ,0.00004
426.0 ,0.00003
426.1 ,0.00004
426.2 ,0.00004
426.3 ,0.00005
426.4 ,0.00005
426.5 ,0.00005
426.6 ,0.00006
426.7 ,0.00007
426.8 ,0.00007
426.9 ,0.00008
427.0 ,0.00009
427.1 ,0.00009
427.2 ,0.00009
427.3 ,0.00009
427.4 ,0.00009
427.5 ,0.00009
427.6 ,0.00009
427.7 ,0.00008
427.8 ,0.00008
427.9 ,0.00008
428.0 ,0.00008
428.1 ,0.00008
428.2 ,0.00008
428.3 ,0.00007
428.4 ,0.00007
428.5 ,0.00007
428.6 ,0.00007
428.7 ,0.00006
428.8 ,0.00006
428.9 ,0.00006
429.0 ,0.00006
429.1 ,0.00006
429.2 ,0.00006
429.3 ,0.00006
429.4 ,0.00006
429.5 ,0.00006
429.6 ,0.00006
429.7 ,0.00006
429.8 ,0.00006
429.9 ,0.00006
430.0 ,0.00006
430.1 ,0.00005
430.2 ,0.00004
430.3 ,0.00004
430.4 ,0.00003
430.5 ,0.00003
430.6 ,0.00003
430.7 ,0.00002
430.8 ,0.00002
430.9 ,0.00002
431.0 ,0.00002
431.1 ,0.00002
431.2 ,0.00002
431.3 ,0.00002
431.4 ,0.00002
431.5 ,0.00002
431.6 ,0.00002
431.7 ,0.00002
431.8 ,0.00002
431.9 ,0.00002
432.0 ,0.00003
432.1 ,0.00003
432.2 ,0.00003
432.3 ,0.00003
432.4 ,0.00003
432.5 ,0.00003
432.6 ,0.00003
432.7 ,0.00003
432.8 ,0.00003
432.9 ,0.00003
433.0 ,0.00003
433.1 ,0.00003
433.2 ,0.00004
433.3 ,0.00004
433.4 ,0.00004
433.5 ,0.00005
433.6 ,0.00005
433.7 ,0.00006
433.8 ,0.00006
433.9 ,0.00007
434.0 ,0.00008
434.1 ,0.00009
434.2 ,0.0001
434.3 ,0.00011
434.4 ,0.00012
434.5 ,0.00013
434.6 ,0.00015
434.7 ,0.00016
434.8 ,0.00017
434.9 ,0.00019
435.0 ,0.0002
435.1 ,0.00021
435.2 ,0.00022
435.3 ,0.00023
435.4 ,0.00024
435.5 ,0.00024
435.6 ,0.00024
435.7 ,0.00024
435.8 ,0.00024
435.9 ,0.00024
436.0 ,0.00024
436.1 ,0.00024
436.2 ,0.00025
436.3 ,0.00026
436.4 ,0.00026
436.5 ,0.00027
436.6 ,0.00027
436.7 ,0.00027
436.8 ,0.00028
436.9 ,0.00028
437.0 ,0.00028
437.1 ,0.00025
437.2 ,0.00023
437.3 ,0.00021
437.4 ,0.00019
437.5 ,0.00017
437.6 ,0.00016
437.7 ,0.00014
437.8 ,0.00013
437.9 ,0.00012
438.0 ,0.00011
438.1 ,0.00011
438.2 ,0.0001
438.3 ,0.0001
438.4 ,0.00009
438.5 ,0.00009
438.6 ,0.00009
438.7 ,0.00009
438.8 ,0.00009
438.9 ,0.00009
439.0 ,0.00009
439.1 ,0.00009
439.2 ,0.0001
439.3 ,0.0001
439.4 ,0.00011
439.5 ,0.00012
439.6 ,0.00013
439.7 ,0.00015
439.8 ,0.00017
439.9 ,0.0002
440.0 ,0.00023
440.1 ,0.00028
440.2 ,0.00034
440.3 ,0.00041
440.4 ,0.00048
440.5 ,0.00055
440.6 ,0.00059
440.7 ,0.00059
440.8 ,0.00056
440.9 ,0.00049
441.0 ,0.00042
441.1 ,0.00033
441.2 ,0.00026
441.3 ,0.00021
441.4 ,0.00017
441.5 ,0.00014
441.6 ,0.00012
441.7 ,0.0001
441.8 ,0.00009
441.9 ,0.00008
442.0 ,0.00007
442.1 ,0.00006
442.2 ,0.00006
442.3 ,0.00005
442.4 ,0.00005
442.5 ,0.00005
442.6 ,0.00005
442.7 ,0.00005
442.8 ,0.00005
442.9 ,0.00005
443.0 ,0.00005
443.1 ,0.00005
443.2 ,0.00005
443.3 ,0.00005
443.4 ,0.00005
443.5 ,0.00006
443.6 ,0.00006
443.7 ,0.00007
443.8 ,0.00007
443.9 ,0.00008
444.0 ,0.00009
444.1 ,0.0001
444.2 ,0.00011
444.3 ,0.00012
444.4 ,0.00013
444.5 ,0.00014
444.6 ,0.00016
444.7 ,0.00017
444.8 ,0.00019
444.9 ,0.00021
445.0 ,0.00022
445.1 ,0.00024
445.2 ,0.00025
445.3 ,0.00026
445.4 ,0.00027
445.5 ,0.00027
445.6 ,0.00027
445.7 ,0.00026
445.8 ,0.00026
445.9 ,0.00025
446.0 ,0.00025
446.1 ,0.00024
446.2 ,0.00023
446.3 ,0.00023
446.4 ,0.00022
446.5 ,0.00022
446.6 ,0.00022
446.7 ,0.00023
446.8 ,0.00023
446.9 ,0.00023
447.0 ,0.00024
447.1 ,0.00025
447.2 ,0.00026
447.3 ,0.00027
447.4 ,0.00029
447.5 ,0.00031
447.6 ,0.00033
447.7 ,0.00035
447.8 ,0.00038
447.9 ,0.00041
448.0 ,0.00044
448.1 ,0.00047
448.2 ,0.00051
448.3 ,0.00055
448.4 ,0.00059
448.5 ,0.00063
448.6 ,0.00066
448.7 ,0.0007
448.8 ,0.00073
448.9 ,0.00077
449.0 ,0.00079
449.1 ,0.00082
449.2 ,0.00084
449.3 ,0.00086
449.4 ,0.00088
449.5 ,0.00089
449.6 ,0.0009
449.7 ,0.0009
449.8 ,0.00091
449.9 ,0.00091
450.0 ,0.00091
450.1 ,0.0009
450.2 ,0.0009
450.3 ,0.00088
450.4 ,0.00087
450.5 ,0.00085
450.6 ,0.00083
450.7 ,0.0008
450.8 ,0.00077
450.9 ,0.00075
451.0 ,0.00072
451.1 ,0.00069
451.2 ,0.00066
451.3 ,0.00063
451.4 ,0.00061
451.5 ,0.00059
451.6 ,0.00057
451.7 ,0.00055
451.8 ,0.00053
451.9 ,0.00052
452.0 ,0.00051
452.1 ,0.0005
452.2 ,0.0005
452.3 ,0.0005
452.4 ,0.0005
452.5 ,0.00051
452.6 ,0.00051
452.7 ,0.00052
452.8 ,0.00054
452.9 ,0.00056
453.0 ,0.00058
453.1 ,0.0006
453.2 ,0.00062
453.3 ,0.00065
453.4 ,0.00067
453.5 ,0.0007
453.6 ,0.00072
453.7 ,0.00073
453.8 ,0.00074
453.9 ,0.00073
454.0 ,0.00071
454.1 ,0.00069
454.2 ,0.00065
454.3 ,0.00061
454.4 ,0.00056
454.5 ,0.00051
454.6 ,0.00046
454.7 ,0.00042
454.8 ,0.00038
454.9 ,0.00034
455.0 ,0.00031
455.1 ,0.00028
455.2 ,0.00025
455.3 ,0.00023
455.4 ,0.00021
455.5 ,0.00019
455.6 ,0.00018
455.7 ,0.00016
455.8 ,0.00015
455.9 ,0.00014
456.0 ,0.00013
456.1 ,0.00012
456.2 ,0.00012
456.3 ,0.00011
456.4 ,0.00011
456.5 ,0.0001
456.6 ,0.0001
456.7 ,0.00009
456.8 ,0.00009
456.9 ,0.00009
457.0 ,0.00008
457.1 ,0.00008
457.2 ,0.00008
457.3 ,0.00008
457.4 ,0.00008
457.5 ,0.00008
457.6 ,0.00007
457.7 ,0.00007
457.8 ,0.00007
457.9 ,0.00007
458.0 ,0.00007
458.1 ,0.00007
458.2 ,0.00007
458.3 ,0.00007
458.4 ,0.00007
458.5 ,0.00007
458.6 ,0.00007
458.7 ,0.00007
458.8 ,0.00008
458.9 ,0.00008
459.0 ,0.00008
459.1 ,0.00008
459.2 ,0.00008
459.3 ,0.00009
459.4 ,0.00009
459.5 ,0.00009
459.6 ,0.00009
459.7 ,0.0001
459.8 ,0.0001
459.9 ,0.0001
460.0 ,0.00011
460.1 ,0.00011
460.2 ,0.00011
460.3 ,0.00011
460.4 ,0.00011
460.5 ,0.00011
460.6 ,0.00011
460.7 ,0.0001
460.8 ,0.0001
460.9 ,0.0001
461.0 ,0.00009
461.1 ,0.00009
461.2 ,0.00008
461.3 ,0.00008
461.4 ,0.00008
461.5 ,0.00007
461.6 ,0.00007
461.7 ,0.00007
461.8 ,0.00006
461.9 ,0.00006
462.0 ,0.00006
462.1 ,0.00006
462.2 ,0.00006
462.3 ,0.00006
462.4 ,0.00005
462.5 ,0.00005
462.6 ,0.00005
462.7 ,0.00005
462.8 ,0.00006
462.9 ,0.00006
463.0 ,0.00006
463.1 ,0.00006
463.2 ,0.00006
463.3 ,0.00007
463.4 ,0.00007
463.5 ,0.00007
463.6 ,0.00008
463.7 ,0.00008
463.8 ,0.00009
463.9 ,0.0001
464.0 ,0.0001
464.1 ,0.00011
464.2 ,0.00012
464.3 ,0.00013
464.4 ,0.00014
464.5 ,0.00015
464.6 ,0.00016
464.7 ,0.00016
464.8 ,0.00017
464.9 ,0.00018
465.0 ,0.00018
465.1 ,0.00018
465.2 ,0.00018
465.3 ,0.00017
465.4 ,0.00017
465.5 ,0.00017
465.6 ,0.00016
465.7 ,0.00016
465.8 ,0.00015
465.9 ,0.00015
466.0 ,0.00015
466.1 ,0.00014
466.2 ,0.00014
466.3 ,0.00014
466.4 ,0.00014
466.5 ,0.00014
466.6 ,0.00015
466.7 ,0.00015
466.8 ,0.00016
466.9 ,0.00016
467.0 ,0.00017
467.1 ,0.00019
467.2 ,0.0002
467.3 ,0.00022
467.4 ,0.00024
467.5 ,0.00026
467.6 ,0.00029
467.7 ,0.00033
467.8 ,0.00037
467.9 ,0.00042
468.0 ,0.00048
468.1 ,0.00054
468.2 ,0.00062
468.3 ,0.00069
468.4 ,0.00077
468.5 ,0.00083
468.6 ,0.00088
468.7 ,0.00091
468.8 ,0.00092
468.9 ,0.0009
469.0 ,0.00086
469.1 ,0.00081
469.2 ,0.00075
469.3 ,0.00069
469.4 ,0.00063
469.5 ,0.00058
469.6 ,0.00053
469.7 ,0.00049
469.8 ,0.00046
469.9 ,0.00043
470.0 ,0.0004
470.1 ,0.00038
470.2 ,0.00036
470.3 ,0.00034
470.4 ,0.00033
470.5 ,0.00032
470.6 ,0.00031
470.7 ,0.0003
470.8 ,0.00029
470.9 ,0.00029
471.0 ,0.00028
471.1 ,0.00028
471.2 ,0.00028
471.3 ,0.00028
471.4 ,0.00028
471.5 ,0.00028
471.6 ,0.00029
471.7 ,0.00029
471.8 ,0.0003
471.9 ,0.00031
472.0 ,0.00032
472.1 ,0.00034
472.2 ,0.00035
472.3 ,0.00037
472.4 ,0.00039
472.5 ,0.00042
472.6 ,0.00045
472.7 ,0.00049
472.8 ,0.00053
472.9 ,0.00058
473.0 ,0.00063
473.1 ,0.00069
473.2 ,0.00076
473.3 ,0.00084
473.4 ,0.00091
473.5 ,0.00098
473.6 ,0.00104
473.7 ,0.00109
473.8 ,0.00111
473.9 ,0.00111
474.0 ,0.00109
474.1 ,0.00104
474.2 ,0.00098
474.3 ,0.00091
474.4 ,0.00083
474.5 ,0.00076
474.6 ,0.00069
474.7 ,0.00063
474.8 ,0.00058
474.9 ,0.00053
475.0 ,0.00049
475.1 ,0.00045
475.2 ,0.00042
475.3 ,0.0004
475.4 ,0.00038
475.5 ,0.00036
475.6 ,0.00035
475.7 ,0.00034
475.8 ,0.00033
475.9 ,0.00032
476.0 ,0.00032
476.1 ,0.00031
476.2 ,0.00031
476.3 ,0.00031
476.4 ,0.00031
476.5 ,0.00032
476.6 ,0.00032
476.7 ,0.00033
476.8 ,0.00034
476.9 ,0.00034
477.0 ,0.00035
477.1 ,0.00036
477.2 ,0.00038
477.3 ,0.00039
477.4 ,0.0004
477.5 ,0.00041
477.6 ,0.00043
477.7 ,0.00044
477.8 ,0.00046
477.9 ,0.00047
478.0 ,0.00049
478.1 ,0.0005
478.2 ,0.00051
478.3 ,0.00053
478.4 ,0.00054
478.5 ,0.00055
478.6 ,0.00057
478.7 ,0.00058
478.8 ,0.00059
478.9 ,0.0006
479.0 ,0.00061
479.1 ,0.00062
479.2 ,0.00063
479.3 ,0.00064
479.4 ,0.00065
479.5 ,0.00066
479.6 ,0.00066
479.7 ,0.00067
479.8 ,0.00067
479.9 ,0.00068
480.0 ,0.00068
480.1 ,0.00068
480.2 ,0.00068
480.3 ,0.00068
480.4 ,0.00067
480.5 ,0.00067
480.6 ,0.00066
480.7 ,0.00065
480.8 ,0.00064
480.9 ,0.00063
481.0 ,0.00061
481.1 ,0.0006
481.2 ,0.00059
481.3 ,0.00057
481.4 ,0.00056
481.5 ,0.00055
481.6 ,0.00054
481.7 ,0.00052
481.8 ,0.00051
481.9 ,0.0005
482.0 ,0.0005
482.1 ,0.00049
482.2 ,0.00048
482.3 ,0.00048
482.4 ,0.00047
482.5 ,0.00047
482.6 ,0.00046
482.7 ,0.00046
482.8 ,0.00046
482.9 ,0.00046
483.0 ,0.00045
483.1 ,0.00045
483.2 ,0.00045
483.3 ,0.00045
483.4 ,0.00045
483.5 ,0.00045
483.6 ,0.00045
483.7 ,0.00044
483.8 ,0.00044
483.9 ,0.00044
484.0 ,0.00044
484.1 ,0.00044
484.2 ,0.00044
484.3 ,0.00043
484.4 ,0.00043
484.5 ,0.00044
484.6 ,0.00044
484.7 ,0.00044
484.8 ,0.00045
484.9 ,0.00045
485.0 ,0.00046
485.1 ,0.00048
485.2 ,0.00049
485.3 ,0.00051
485.4 ,0.00054
485.5 ,0.00057
485.6 ,0.0006
485.7 ,0.00065
485.8 ,0.00069
485.9 ,0.00075
486.0 ,0.00081
486.1 ,0.00087
486.2 ,0.00093
486.3 ,0.00097
486.4 ,0.00099
486.5 ,0.00098
486.6 ,0.00095
486.7 ,0.00088
486.8 ,0.0008
486.9 ,0.0007
487.0 ,0.0006
487.1 ,0.00051
487.2 ,0.00042
487.3 ,0.00036
487.4 ,0.0003
487.5 ,0.00025
487.6 ,0.00021
487.7 ,0.00018
487.8 ,0.00016
487.9 ,0.00014
488.0 ,0.00012
488.1 ,0.00011
488.2 ,0.00009
488.3 ,0.00009
488.4 ,0.00008
488.5 ,0.00007
488.6 ,0.00006
488.7 ,0.00006
488.8 ,0.00006
488.9 ,0.00005
489.0 ,0.00005
489.1 ,0.00005
489.2 ,0.00004
489.3 ,0.00004
489.4 ,0.00004
489.5 ,0.00004
489.6 ,0.00004
489.7 ,0.00004
489.8 ,0.00004
489.9 ,0.00004
490.0 ,0.00004
490.1 ,0.00004
490.2 ,0.00004
490.3 ,0.00004
490.4 ,0.00004
490.5 ,0.00004
490.6 ,0.00004
490.7 ,0.00004
490.8 ,0.00004
490.9 ,0.00005
491.0 ,0.00005
491.1 ,0.00005
491.2 ,0.00005
491.3 ,0.00005
491.4 ,0.00005
491.5 ,0.00005
491.6 ,0.00005
491.7 ,0.00005
491.8 ,0.00005
491.9 ,0.00005
492.0 ,0.00005
492.1 ,0.00005
492.2 ,0.00004
492.3 ,0.00004
492.4 ,0.00003
492.5 ,0.00003
492.6 ,0.00003
492.7 ,0.00002
492.8 ,0.00002
492.9 ,0.00002
493.0 ,0.00002
493.1 ,0.00001
493.2 ,0.00001
493.3 ,0.00001
493.4 ,0.00001
493.5 ,0.00001
493.6 ,0.00001
493.7 ,0.00001
493.8 ,0.00001
493.9 ,0.00001
494.0 ,0
494.1 ,0
494.2 ,0
494.3 ,0
494.4 ,0
494.5 ,0
494.6 ,0
494.7 ,0
494.8 ,0
494.9 ,0
495.0 ,0
495.1 ,0
495.2 ,0
495.3 ,0
495.4 ,0
495.5 ,0
495.6 ,0
495.7 ,0
495.8 ,0
495.9 ,0
496.0 ,0
496.1 ,0
496.2 ,0
496.3 ,0
496.4 ,0
496.5 ,0
496.6 ,0
496.7 ,0
496.8 ,0
496.9 ,0
497.0 ,0
497.1 ,0
497.2 ,0
497.3 ,0
497.4 ,0
497.5 ,0
497.6 ,0
497.7 ,0
497.8 ,0
497.9 ,0
498.0 ,0
498.1 ,0
498.2 ,0
498.3 ,0
498.4 ,0
498.5 ,0
498.6 ,0
498.7 ,0
498.8 ,0
498.9 ,0
499.0 ,0
499.1 ,0
499.2 ,0
499.3 ,0
499.4 ,0
499.5 ,0
499.6 ,0
499.7 ,0
499.8 ,0
499.9 ,0
500.0 ,0
500.1 ,0
500.2 ,0
500.3 ,0
500.4 ,0
500.5 ,0
500.6 ,0
500.7 ,0
500.8 ,0
500.9 ,0
501.0 ,0
501.1 ,0
501.2 ,0
501.3 ,0
501.4 ,0
501.5 ,0
501.6 ,0
501.7 ,0
501.8 ,0
501.9 ,0
502.0 ,0
502.1 ,0
502.2 ,0
502.3 ,0
502.4 ,0
502.5 ,0
502.6 ,0
502.7 ,0
502.8 ,0
502.9 ,0
503.0 ,0
503.1 ,0
503.2 ,0
503.3 ,0
503.4 ,0
503.5 ,0
503.6 ,0
503.7 ,0
503.8 ,0
503.9 ,0
504.0 ,0
504.1 ,0
504.2 ,0
504.3 ,0
504.4 ,0
504.5 ,0
504.6 ,0
504.7 ,0
504.8 ,0
504.9 ,0
505.0 ,0
505.1 ,0
505.2 ,0
505.3 ,0
505.4 ,0
505.5 ,0
505.6 ,0
505.7 ,0
505.8 ,0
505.9 ,0
506.0 ,0
506.1 ,0
506.2 ,0
506.3 ,0
506.4 ,0
506.5 ,0
506.6 ,0.00001
506.7 ,0.00001
506.8 ,0.00001
506.9 ,0.00001
507.0 ,0.00001
507.1 ,0.00001
507.2 ,0.00001
507.3 ,0.00001
507.4 ,0.00001
507.5 ,0.00001
507.6 ,0.00001
507.7 ,0.00001
507.8 ,0.00001
507.9 ,0.00001
508.0 ,0.00001
508.1 ,0.00001
508.2 ,0.00001
508.3 ,0.00001
508.4 ,0.00001
508.5 ,0.00001
508.6 ,0.00001
508.7 ,0.00001
508.8 ,0
508.9 ,0
509.0 ,0
509.1 ,0
509.2 ,0
509.3 ,0
509.4 ,0
509.5 ,0
509.6 ,0
509.7 ,0
509.8 ,0
509.9 ,0
510.0 ,0
510.1 ,0
510.2 ,0
510.3 ,0
510.4 ,0
510.5 ,0
510.6 ,0
510.7 ,0
510.8 ,0
510.9 ,0
511.0 ,0
511.1 ,0
511.2 ,0
511.3 ,0
511.4 ,0
511.5 ,0
511.6 ,0
511.7 ,0
511.8 ,0
511.9 ,0
512.0 ,0
512.1 ,0
512.2 ,0
512.3 ,0
512.4 ,0
512.5 ,0
512.6 ,0
512.7 ,0
512.8 ,0
512.9 ,0
513.0 ,0.00001
513.1 ,0.00001
513.2 ,0.00001
513.3 ,0.00001
513.4 ,0.00001
513.5 ,0.00001
513.6 ,0.00001
513.7 ,0.00001
513.8 ,0.00001
513.9 ,0.00001
514.0 ,0.00001
514.1 ,0.00001
514.2 ,0.00001
514.3 ,0.00001
514.4 ,0.00001
514.5 ,0.00001
514.6 ,0.00001
514.7 ,0.00001
514.8 ,0.00001
514.9 ,0.00001
515.0 ,0.00001
515.1 ,0.00001
515.2 ,0.00001
515.3 ,0.00001
515.4 ,0.00001
515.5 ,0.00001
515.6 ,0.00001
515.7 ,0.00001
515.8 ,0.00001
515.9 ,0.00002
516.0 ,0.00002
516.1 ,0.00002
516.2 ,0.00002
516.3 ,0.00002
516.4 ,0.00002
516.5 ,0.00002
516.6 ,0.00002
516.7 ,0.00002
516.8 ,0.00002
516.9 ,0.00002
517.0 ,0.00003
517.1 ,0.00003
517.2 ,0.00003
517.3 ,0.00003
517.4 ,0.00003
517.5 ,0.00003
517.6 ,0.00004
517.7 ,0.00004
517.8 ,0.00004
517.9 ,0.00004
518.0 ,0.00005
518.1 ,0.00005
518.2 ,0.00005
518.3 ,0.00006
518.4 ,0.00006
518.5 ,0.00007
518.6 ,0.00007
518.7 ,0.00008
518.8 ,0.00009
518.9 ,0.00009
519.0 ,0.0001
519.1 ,0.00011
519.2 ,0.00012
519.3 ,0.00014
519.4 ,0.00015
519.5 ,0.00017
519.6 ,0.00019
519.7 ,0.00021
519.8 ,0.00024
519.9 ,0.00027
520.0 ,0.0003
520.1 ,0.00033
520.2 ,0.00037
520.3 ,0.00041
520.4 ,0.00044
520.5 ,0.00047
520.6 ,0.00049
520.7 ,0.0005
520.8 ,0.0005
520.9 ,0.00048
521.0 ,0.00045
521.1 ,0.00042
521.2 ,0.00037
521.3 ,0.00033
521.4 ,0.00029
521.5 ,0.00025
521.6 ,0.00022
521.7 ,0.00019
521.8 ,0.00016
521.9 ,0.00014
522.0 ,0.00012
522.1 ,0.00011
522.2 ,0.00009
522.3 ,0.00008
522.4 ,0.00007
522.5 ,0.00006
522.6 ,0.00006
522.7 ,0.00005
522.8 ,0.00005
522.9 ,0.00004
523.0 ,0.00004
523.1 ,0.00004
523.2 ,0.00003
523.3 ,0.00003
523.4 ,0.00003
523.5 ,0.00003
523.6 ,0.00002
523.7 ,0.00002
523.8 ,0.00002
523.9 ,0.00002
524.0 ,0.00002
524.1 ,0.00002
524.2 ,0.00002
524.3 ,0.00002
524.4 ,0.00002
524.5 ,0.00001
524.6 ,0.00001
524.7 ,0.00001
524.8 ,0.00001
524.9 ,0.00001
525.0 ,0.00001
525.1 ,0.00001
525.2 ,0.00001
525.3 ,0.00001
525.4 ,0.00001
525.5 ,0.00001
525.6 ,0.00001
525.7 ,0.00001
525.8 ,0.00001
525.9 ,0.00001
526.0 ,0.00001
526.1 ,0.00001
526.2 ,0.00001
526.3 ,0.00001
526.4 ,0.00001
526.5 ,0.00001
526.6 ,0.00001
526.7 ,0.00001
526.8 ,0.00001
526.9 ,0.00001
527.0 ,0.00001
527.1 ,0.00001
527.2 ,0.00001
527.3 ,0.00001
527.4 ,0.00001
527.5 ,0.00002
527.6 ,0.00002
527.7 ,0.00002
527.8 ,0.00002
527.9 ,0.00002
528.0 ,0.00002
528.1 ,0.00002
528.2 ,0.00002
528.3 ,0.00002
528.4 ,0.00002
528.5 ,0.00002
528.6 ,0.00002
528.7 ,0.00002
528.8 ,0.00002
528.9 ,0.00002
529.0 ,0.00002
529.1 ,0.00002
529.2 ,0.00003
529.3 ,0.00003
529.4 ,0.00003
529.5 ,0.00003
529.6 ,0.00003
529.7 ,0.00003
529.8 ,0.00003
529.9 ,0.00003
530.0 ,0.00003
530.1 ,0.00003
530.2 ,0.00003
530.3 ,0.00003
530.4 ,0.00004
530.5 ,0.00004
530.6 ,0.00004
530.7 ,0.00004
530.8 ,0.00004
530.9 ,0.00004
531.0 ,0.00005
531.1 ,0.00005
531.2 ,0.00005
531.3 ,0.00005
531.4 ,0.00006
531.5 ,0.00006
531.6 ,0.00007
531.7 ,0.00007
531.8 ,0.00008
531.9 ,0.00009
532.0 ,0.00009
532.1 ,0.0001
532.2 ,0.00011
532.3 ,0.00012
532.4 ,0.00013
532.5 ,0.00015
532.6 ,0.00016
532.7 ,0.00017
532.8 ,0.00018
532.9 ,0.00019
533.0 ,0.00019
533.1 ,0.0002
533.2 ,0.0002
533.3 ,0.00019
533.4 ,0.00019
533.5 ,0.00018
533.6 ,0.00017
533.7 ,0.00016
533.8 ,0.00015
533.9 ,0.00014
534.0 ,0.00013
534.1 ,0.00013
534.2 ,0.00012
534.3 ,0.00011
534.4 ,0.0001
534.5 ,0.0001
534.6 ,0.00009
534.7 ,0.00009
534.8 ,0.00008
534.9 ,0.00008
535.0 ,0.00008
535.1 ,0.00007
535.2 ,0.00007
535.3 ,0.00007
535.4 ,0.00007
535.5 ,0.00006
535.6 ,0.00006
535.7 ,0.00006
535.8 ,0.00006
535.9 ,0.00006
536.0 ,0.00006
536.1 ,0.00006
536.2 ,0.00006
536.3 ,0.00006
536.4 ,0.00005
536.5 ,0.00005
536.6 ,0.00005
536.7 ,0.00005
536.8 ,0.00005
536.9 ,0.00005
537.0 ,0.00005
537.1 ,0.00005
537.2 ,0.00005
537.3 ,0.00005
537.4 ,0.00004
537.5 ,0.00004
537.6 ,0.00004
537.7 ,0.00004
537.8 ,0.00004
537.9 ,0.00004
538.0 ,0.00004
538.1 ,0.00003
538.2 ,0.00003
538.3 ,0.00003
538.4 ,0.00003
538.5 ,0.00003
538.6 ,0.00003
538.7 ,0.00002
538.8 ,0.00002
538.9 ,0.00002
539.0 ,0.00002
539.1 ,0.00002
539.2 ,0.00002
539.3 ,0.00002
539.4 ,0.00002
539.5 ,0.00001
539.6 ,0.00001
539.7 ,0.00001
539.8 ,0.00001
539.9 ,0.00001
540.0 ,0.00001
540.1 ,0.00001
540.2 ,0.00001
540.3 ,0.00001
540.4 ,0.00001
540.5 ,0.00001
540.6 ,0.00001
540.7 ,0.00001
540.8 ,0.00001
540.9 ,0.00001
541.0 ,0.00001
541.1 ,0.00001
541.2 ,0.00001
541.3 ,0.00001
541.4 ,0.00001
541.5 ,0.00001
541.6 ,0.00001
541.7 ,0
541.8 ,0
541.9 ,0
542.0 ,0
542.1 ,0
542.2 ,0
542.3 ,0
542.4 ,0
542.5 ,0
542.6 ,0
542.7 ,0
542.8 ,0
542.9 ,0
543.0 ,0
543.1 ,0
543.2 ,0
543.3 ,0
543.4 ,0
543.5 ,0
543.6 ,0
543.7 ,0
543.8 ,0
543.9 ,0
544.0 ,0
544.1 ,0
544.2 ,0
544.3 ,0
544.4 ,0
544.5 ,0
544.6 ,0
544.7 ,0
544.8 ,0
544.9 ,0
545.0 ,0
545.1 ,0
545.2 ,0
545.3 ,0
545.4 ,0
545.5 ,0
545.6 ,0
545.7 ,0
545.8 ,0.00001
545.9 ,0.00001
546.0 ,0.00001
546.1 ,0.00001
546.2 ,0.00001
546.3 ,0.00001
546.4 ,0.00001
546.5 ,0.00001
546.6 ,0.00001
546.7 ,0.00001
546.8 ,0.00001
546.9 ,0.00001
547.0 ,0.00001
547.1 ,0.00001
547.2 ,0.00001
547.3 ,0.00001
547.4 ,0.00001
547.5 ,0.00001
547.6 ,0.00001
547.7 ,0.00001
547.8 ,0.00001
547.9 ,0.00001
548.0 ,0.00001
548.1 ,0.00001
548.2 ,0.00001
548.3 ,0.00001
548.4 ,0.00001
548.5 ,0.00001
548.6 ,0.00001
548.7 ,0.00001
548.8 ,0.00001
548.9 ,0.00001
549.0 ,0.00001
549.1 ,0.00001
549.2 ,0
549.3 ,0
549.4 ,0
549.5 ,0
549.6 ,0
549.7 ,0
549.8 ,0
549.9 ,0
550.0 ,0
550.1 ,0
550.2 ,0
550.3 ,0
550.4 ,0
550.5 ,0
550.6 ,0
550.7 ,0
550.8 ,0.00001
550.9 ,0.00001
551.0 ,0.00001
551.1 ,0.00001
551.2 ,0.00001
551.3 ,0.00001
551.4 ,0.00001
551.5 ,0.00001
551.6 ,0.00001
551.7 ,0.00001
551.8 ,0.00001
551.9 ,0.00001
552.0 ,0.00001
552.1 ,0.00001
552.2 ,0.00001
552.3 ,0.00001
552.4 ,0.00001
552.5 ,0.00001
552.6 ,0.00001
552.7 ,0.00001
552.8 ,0.00001
552.9 ,0.00001
553.0 ,0.00001
553.1 ,0.00001
553.2 ,0.00001
553.3 ,0.00001
553.4 ,0.00001
553.5 ,0.00001
553.6 ,0.00001
553.7 ,0.00001
553.8 ,0.00001
553.9 ,0.00001
554.0 ,0.00001
554.1 ,0.00002
554.2 ,0.00002
554.3 ,0.00002
554.4 ,0.00002
554.5 ,0.00002
554.6 ,0.00002
554.7 ,0.00002
554.8 ,0.00002
554.9 ,0.00002
555.0 ,0.00002
555.1 ,0.00002
555.2 ,0.00003
555.3 ,0.00003
555.4 ,0.00003
555.5 ,0.00003
555.6 ,0.00003
555.7 ,0.00003
555.8 ,0.00004
555.9 ,0.00004
556.0 ,0.00004
556.1 ,0.00004
556.2 ,0.00004
556.3 ,0.00005
556.4 ,0.00005
556.5 ,0.00005
556.6 ,0.00006
556.7 ,0.00006
556.8 ,0.00007
556.9 ,0.00007
557.0 ,0.00008
557.1 ,0.00008
557.2 ,0.00009
557.3 ,0.0001
557.4 ,0.00011
557.5 ,0.00012
557.6 ,0.00013
557.7 ,0.00015
557.8 ,0.00017
557.9 ,0.00019
558.0 ,0.00021
558.1 ,0.00024
558.2 ,0.00027
558.3 ,0.0003
558.4 ,0.00035
558.5 ,0.0004
558.6 ,0.00045
558.7 ,0.00052
558.8 ,0.00059
558.9 ,0.00066
559.0 ,0.00074
559.1 ,0.00081
559.2 ,0.00088
559.3 ,0.00093
559.4 ,0.00097
559.5 ,0.00098
559.6 ,0.00098
559.7 ,0.00096
559.8 ,0.00092
559.9 ,0.00088
560.0 ,0.00083
560.1 ,0.00077
560.2 ,0.00072
560.3 ,0.00066
560.4 ,0.00062
560.5 ,0.00057
560.6 ,0.00053
560.7 ,0.0005
560.8 ,0.00047
560.9 ,0.00044
561.0 ,0.00042
561.1 ,0.00039
561.2 ,0.00037
561.3 ,0.00036
561.4 ,0.00034
561.5 ,0.00033
561.6 ,0.00032
561.7 ,0.00031
561.8 ,0.0003
561.9 ,0.00029
562.0 ,0.00028
562.1 ,0.00027
562.2 ,0.00026
562.3 ,0.00026
562.4 ,0.00025
562.5 ,0.00024
562.6 ,0.00024
562.7 ,0.00023
562.8 ,0.00023
562.9 ,0.00022
563.0 ,0.00022
563.1 ,0.00021
563.2 ,0.00021
563.3 ,0.00021
563.4 ,0.0002
563.5 ,0.0002
563.6 ,0.00019
563.7 ,0.00019
563.8 ,0.00018
563.9 ,0.00018
564.0 ,0.00018
564.1 ,0.00017
564.2 ,0.00017
564.3 ,0.00017
564.4 ,0.00016
564.5 ,0.00016
564.6 ,0.00015
564.7 ,0.00015
564.8 ,0.00015
564.9 ,0.00015
565.0 ,0.00014
565.1 ,0.00014
565.2 ,0.00014
565.3 ,0.00013
565.4 ,0.00013
565.5 ,0.00013
565.6 ,0.00013
565.7 ,0.00013
565.8 ,0.00012
565.9 ,0.00012
566.0 ,0.00012
566.1 ,0.00012
566.2 ,0.00011
566.3 ,0.00011
566.4 ,0.00011
566.5 ,0.00011
566.6 ,0.00011
566.7 ,0.0001
566.8 ,0.0001
566.9 ,0.0001
567.0 ,0.0001
567.1 ,0.0001
567.2 ,0.0001
567.3 ,0.00009
567.4 ,0.00009
567.5 ,0.00009
567.6 ,0.00009
567.7 ,0.00009
567.8 ,0.00009
567.9 ,0.00009
568.0 ,0.00009
568.1 ,0.00009
568.2 ,0.00009
568.3 ,0.0001
568.4 ,0.0001
568.5 ,0.0001
568.6 ,0.00011
568.7 ,0.00011
568.8 ,0.00012
568.9 ,0.00012
569.0 ,0.00013
569.1 ,0.00013
569.2 ,0.00014
569.3 ,0.00014
569.4 ,0.00014
569.5 ,0.00014
569.6 ,0.00014
569.7 ,0.00015
569.8 ,0.00015
569.9 ,0.00015
570.0 ,0.00016
570.1 ,0.00016
570.2 ,0.00016
570.3 ,0.00016
570.4 ,0.00015
570.5 ,0.00015
570.6 ,0.00015
570.7 ,0.00015
570.8 ,0.00015
570.9 ,0.00015
571.0 ,0.00015
571.1 ,0.00016
571.2 ,0.00017
571.3 ,0.00018
571.4 ,0.0002
571.5 ,0.00021
571.6 ,0.00023
571.7 ,0.00026
571.8 ,0.00029
571.9 ,0.00033
572.0 ,0.00039
572.1 ,0.00036
572.2 ,0.00034
572.3 ,0.00031
572.4 ,0.00029
572.5 ,0.00026
572.6 ,0.00024
572.7 ,0.00022
572.8 ,0.0002
572.9 ,0.00018
573.0 ,0.00016
573.1 ,0.00017
573.2 ,0.00017
573.3 ,0.00018
573.4 ,0.00018
573.5 ,0.00019
573.6 ,0.0002
573.7 ,0.00022
573.8 ,0.00024
573.9 ,0.00027
574.0 ,0.00032
574.1 ,0.00026
574.2 ,0.00022
574.3 ,0.00018
574.4 ,0.00016
574.5 ,0.00014
574.6 ,0.00012
574.7 ,0.00011
574.8 ,0.0001
574.9 ,0.00009
575.0 ,0.00008
575.1 ,0.00008
575.2 ,0.00008
575.3 ,0.00008
575.4 ,0.00008
575.5 ,0.00008
575.6 ,0.00008
575.7 ,0.00008
575.8 ,0.00008
575.9 ,0.00008
576.0 ,0.00009
576.1 ,0.00009
576.2 ,0.00011
576.3 ,0.00012
576.4 ,0.00013
576.5 ,0.00015
576.6 ,0.00018
576.7 ,0.00022
576.8 ,0.00027
576.9 ,0.00036
577.0 ,0.00053
577.1 ,0.00047
577.2 ,0.00042
577.3 ,0.00038
577.4 ,0.00035
577.5 ,0.00031
577.6 ,0.00028
577.7 ,0.00026
577.8 ,0.00023
577.9 ,0.00021
578.0 ,0.00019
578.1 ,0.00019
578.2 ,0.0002
578.3 ,0.0002
578.4 ,0.00021
578.5 ,0.00022
578.6 ,0.00023
578.7 ,0.00024
578.8 ,0.00026
578.9 ,0.00029
579.0 ,0.00032
579.1 ,0.00013
579.2 ,0.00008
579.3 ,0.00005
579.4 ,0.00004
579.5 ,0.00003
579.6 ,0.00003
579.7 ,0.00002
579.8 ,0.00002
579.9 ,0.00002
580.0 ,0.00001
580.1 ,0.00001
580.2 ,0.00002
580.3 ,0.00002
580.4 ,0.00002
580.5 ,0.00002
580.6 ,0.00002
580.7 ,0.00002
580.8 ,0.00002
580.9 ,0.00003
581.0 ,0.00003
581.1 ,0.00003
581.2 ,0.00003
581.3 ,0.00004
581.4 ,0.00004
581.5 ,0.00004
581.6 ,0.00004
581.7 ,0.00004
581.8 ,0.00004
581.9 ,0.00005
582.0 ,0.00005
582.1 ,0.00005
582.2 ,0.00005
582.3 ,0.00005
582.4 ,0.00005
582.5 ,0.00006
582.6 ,0.00006
582.7 ,0.00006
582.8 ,0.00006
582.9 ,0.00006
583.0 ,0.00007
583.1 ,0.00007
583.2 ,0.00008
583.3 ,0.00008
583.4 ,0.00009
583.5 ,0.0001
583.6 ,0.00011
583.7 ,0.00012
583.8 ,0.00013
583.9 ,0.00015
584.0 ,0.00017
584.1 ,0.00008
584.2 ,0.00006
584.3 ,0.00004
584.4 ,0.00003
584.5 ,0.00003
584.6 ,0.00003
584.7 ,0.00002
584.8 ,0.00002
584.9 ,0.00002
585.0 ,0.00002
585.1 ,0.00002
585.2 ,0.00002
585.3 ,0.00003
585.4 ,0.00003
585.5 ,0.00003
585.6 ,0.00004
585.7 ,0.00005
585.8 ,0.00006
585.9 ,0.00009
586.0 ,0.00013
586.1 ,0.00009
586.2 ,0.00007
586.3 ,0.00005
586.4 ,0.00005
586.5 ,0.00004
586.6 ,0.00004
586.7 ,0.00003
586.8 ,0.00003
586.9 ,0.00003
587.0 ,0.00003
587.1 ,0.00003
587.2 ,0.00004
587.3 ,0.00004
587.4 ,0.00005
587.5 ,0.00006
587.6 ,0.00007
587.7 ,0.00009
587.8 ,0.00012
587.9 ,0.00016
588.0 ,0.00027
588.1 ,0.00022
588.2 ,0.00018
588.3 ,0.00016
588.4 ,0.00014
588.5 ,0.00013
588.6 ,0.00012
588.7 ,0.00011
588.8 ,0.00011
588.9 ,0.0001
589.0 ,0.0001
589.1 ,0.0001
589.2 ,0.0001
589.3 ,0.0001
589.4 ,0.0001
589.5 ,0.0001
589.6 ,0.0001
589.7 ,0.0001
589.8 ,0.0001
589.9 ,0.0001
590.0 ,0.00011
590.1 ,0.00012
590.2 ,0.00013
590.3 ,0.00015
590.4 ,0.00017
590.5 ,0.0002
590.6 ,0.00023
590.7 ,0.00027
590.8 ,0.00032
590.9 ,0.0004
591.0 ,0.0005
591.1 ,0.00039
591.2 ,0.00033
591.3 ,0.00029
591.4 ,0.00026
591.5 ,0.00024
591.6 ,0.00023
591.7 ,0.00021
591.8 ,0.00021
591.9 ,0.0002
592.0 ,0.00019
592.1 ,0.00022
592.2 ,0.00025
592.3 ,0.00028
592.4 ,0.00032
592.5 ,0.00036
592.6 ,0.0004
592.7 ,0.00046
592.8 ,0.00051
592.9 ,0.00057
593.0 ,0.00064
593.1 ,0.00055
593.2 ,0.00048
593.3 ,0.00043
593.4 ,0.00039
593.5 ,0.00035
593.6 ,0.00032
593.7 ,0.00029
593.8 ,0.00027
593.9 ,0.00025
594.0 ,0.00023
594.1 ,0.00023
594.2 ,0.00023
594.3 ,0.00023
594.4 ,0.00023
594.5 ,0.00023
594.6 ,0.00023
594.7 ,0.00023
594.8 ,0.00024
594.9 ,0.00024
595.0 ,0.00024
595.1 ,0.00022
595.2 ,0.00021
595.3 ,0.00019
595.4 ,0.00018
595.5 ,0.00017
595.6 ,0.00016
595.7 ,0.00014
595.8 ,0.00014
595.9 ,0.00013
596.0 ,0.00012
596.1 ,0.00011
596.2 ,0.0001
596.3 ,0.00009
596.4 ,0.00009
596.5 ,0.00008
596.6 ,0.00007
596.7 ,0.00007
596.8 ,0.00006
596.9 ,0.00006
597.0 ,0.00005
597.1 ,0.00005
597.2 ,0.00005
597.3 ,0.00005
597.4 ,0.00005
597.5 ,0.00006
597.6 ,0.00006
597.7 ,0.00006
597.8 ,0.00007
597.9 ,0.00007
598.0 ,0.00008
598.1 ,0.00007
598.2 ,0.00006
598.3 ,0.00005
598.4 ,0.00004
598.5 ,0.00003
598.6 ,0.00003
598.7 ,0.00003
598.8 ,0.00002
598.9 ,0.00002
599.0 ,0.00002
599.1 ,0.00002
599.2 ,0.00002
599.3 ,0.00002
599.4 ,0.00002
599.5 ,0.00002
599.6 ,0.00002
599.7 ,0.00003
599.8 ,0.00003
599.9 ,0.00004
600.0 ,0.00005
600.1 ,0.00004
600.2 ,0.00003
600.3 ,0.00002
600.4 ,0.00002
600.5 ,0.00001
600.6 ,0.00001
600.7 ,0.00001
600.8 ,0.00001
600.9 ,0.00001
601.0 ,0.00001
601.1 ,0.00001
601.2 ,0.00001
601.3 ,0.00001
601.4 ,0.00001
601.5 ,0.00001
601.6 ,0.00001
601.7 ,0.00001
601.8 ,0.00001
601.9 ,0.00001
602.0 ,0.00001
602.1 ,0.00001
602.2 ,0.00001
602.3 ,0.00001
602.4 ,0.00002
602.5 ,0.00002
602.6 ,0.00002
602.7 ,0.00002
602.8 ,0.00002
602.9 ,0.00003
603.0 ,0.00003
603.1 ,0.00003
603.2 ,0.00002
603.3 ,0.00002
603.4 ,0.00002
603.5 ,0.00002
603.6 ,0.00002
603.7 ,0.00002
603.8 ,0.00002
603.9 ,0.00002
604.0 ,0.00002
604.1 ,0.00002
604.2 ,0.00002
604.3 ,0.00002
604.4 ,0.00002
604.5 ,0.00002
604.6 ,0.00003
604.7 ,0.00003
604.8 ,0.00003
604.9 ,0.00004
605.0 ,0.00004
605.1 ,0.00004
605.2 ,0.00003
605.3 ,0.00003
605.4 ,0.00002
605.5 ,0.00002
605.6 ,0.00002
605.7 ,0.00002
605.8 ,0.00002
605.9 ,0.00002
606.0 ,0.00002
606.1 ,0.00002
606.2 ,0.00002
606.3 ,0.00002
606.4 ,0.00002
606.5 ,0.00003
606.6 ,0.00003
606.7 ,0.00003
606.8 ,0.00004
606.9 ,0.00004
607.0 ,0.00005
607.1 ,0.00005
607.2 ,0.00005
607.3 ,0.00005
607.4 ,0.00005
607.5 ,0.00005
607.6 ,0.00005
607.7 ,0.00005
607.8 ,0.00005
607.9 ,0.00004
608.0 ,0.00004
608.1 ,0.00004
608.2 ,0.00004
608.3 ,0.00004
608.4 ,0.00004
608.5 ,0.00004
608.6 ,0.00004
608.7 ,0.00004
608.8 ,0.00004
608.9 ,0.00004
609.0 ,0.00004
609.1 ,0.00004
609.2 ,0.00004
609.3 ,0.00004
609.4 ,0.00004
609.5 ,0.00004
609.6 ,0.00004
609.7 ,0.00004
609.8 ,0.00004
609.9 ,0.00004
610.0 ,0.00004
610.1 ,0.00003
610.2 ,0.00003
610.3 ,0.00003
610.4 ,0.00003
610.5 ,0.00003
610.6 ,0.00003
610.7 ,0.00003
610.8 ,0.00003
610.9 ,0.00003
611.0 ,0.00003
611.1 ,0.00003
611.2 ,0.00002
611.3 ,0.00002
611.4 ,0.00002
611.5 ,0.00002
611.6 ,0.00002
611.7 ,0.00002
611.8 ,0.00002
611.9 ,0.00002
612.0 ,0.00002
612.1 ,0.00002
612.2 ,0.00002
612.3 ,0.00002
612.4 ,0.00002
612.5 ,0.00002
612.6 ,0.00002
612.7 ,0.00002
612.8 ,0.00002
612.9 ,0.00002
613.0 ,0.00002
613.1 ,0.00002
613.2 ,0.00002
613.3 ,0.00002
613.4 ,0.00002
613.5 ,0.00001
613.6 ,0.00001
613.7 ,0.00001
613.8 ,0.00001
613.9 ,0.00001
614.0 ,0.00001
614.1 ,0.00001
614.2 ,0.00001
614.3 ,0.00001
614.4 ,0.00001
614.5 ,0.00001
614.6 ,0.00001
614.7 ,0.00001
614.8 ,0.00001
614.9 ,0.00001
615.0 ,0.00001
615.1 ,0.00001
615.2 ,0.00001
615.3 ,0.00001
615.4 ,0.00001
615.5 ,0.00001
615.6 ,0.00001
615.7 ,0.00001
615.8 ,0.00001
615.9 ,0.00001
616.0 ,0.00001
616.1 ,0.00001
616.2 ,0.00001
616.3 ,0.00001
616.4 ,0.00001
616.5 ,0.00001
616.6 ,0.00001
616.7 ,0.00001
616.8 ,0.00001
616.9 ,0.00001
617.0 ,0.00001
617.1 ,0.00001
617.2 ,0.00001
617.3 ,0.00001
617.4 ,0.00001
617.5 ,0.00001
617.6 ,0.00001
617.7 ,0.00001
617.8 ,0.00001
617.9 ,0.00001
618.0 ,0.00001
618.1 ,0.00001
618.2 ,0.00001
618.3 ,0.00001
618.4 ,0.00001
618.5 ,0.00001
618.6 ,0.00001
618.7 ,0.00001
618.8 ,0.00001
618.9 ,0.00001
619.0 ,0.00001
619.1 ,0.00001
619.2 ,0.00001
619.3 ,0.00001
619.4 ,0.00001
619.5 ,0.00001
619.6 ,0.00001
619.7 ,0.00001
619.8 ,0.00001
619.9 ,0.00001
620.0 ,0.00001
620.1 ,0.00001
620.2 ,0.00001
620.3 ,0.00001
620.4 ,0.00001
620.5 ,0.00001
620.6 ,0.00001
620.7 ,0.00001
620.8 ,0.00001
620.9 ,0.00001
621.0 ,0.00001
621.1 ,0.00001
621.2 ,0.00001
621.3 ,0.00001
621.4 ,0.00001
621.5 ,0.00001
621.6 ,0.00001
621.7 ,0.00001
621.8 ,0.00001
621.9 ,0.00001
622.0 ,0.00001
622.1 ,0.00001
622.2 ,0.00001
622.3 ,0.00001
622.4 ,0.00001
622.5 ,0.00001
622.6 ,0.00001
622.7 ,0.00001
622.8 ,0.00001
622.9 ,0.00001
623.0 ,0.00001
623.1 ,0.00001
623.2 ,0.00001
623.3 ,0.00001
623.4 ,0.00001
623.5 ,0.00001
623.6 ,0.00002
623.7 ,0.00002
623.8 ,0.00002
623.9 ,0.00002
624.0 ,0.00002
624.1 ,0.00002
624.2 ,0.00002
624.3 ,0.00002
624.4 ,0.00002
624.5 ,0.00002
624.6 ,0.00002
624.7 ,0.00002
624.8 ,0.00002
624.9 ,0.00002
625.0 ,0.00002
625.1 ,0.00002
625.2 ,0.00002
625.3 ,0.00002
625.4 ,0.00002
625.5 ,0.00002
625.6 ,0.00002
625.7 ,0.00003
625.8 ,0.00003
625.9 ,0.00003
626.0 ,0.00003
626.1 ,0.00003
626.2 ,0.00003
626.3 ,0.00003
626.4 ,0.00003
626.5 ,0.00003
626.6 ,0.00003
626.7 ,0.00003
626.8 ,0.00003
626.9 ,0.00004
627.0 ,0.00004
627.1 ,0.00004
627.2 ,0.00004
627.3 ,0.00004
627.4 ,0.00004
627.5 ,0.00004
627.6 ,0.00004
627.7 ,0.00005
627.8 ,0.00005
627.9 ,0.00005
628.0 ,0.00005
628.1 ,0.00005
628.2 ,0.00005
628.3 ,0.00005
628.4 ,0.00005
628.5 ,0.00006
628.6 ,0.00006
628.7 ,0.00006
628.8 ,0.00006
628.9 ,0.00006
629.0 ,0.00006
629.1 ,0.00006
629.2 ,0.00006
629.3 ,0.00007
629.4 ,0.00007
629.5 ,0.00007
629.6 ,0.00007
629.7 ,0.00007
629.8 ,0.00007
629.9 ,0.00007
630.0 ,0.00007
630.1 ,0.00007
630.2 ,0.00007
630.3 ,0.00007
630.4 ,0.00008
630.5 ,0.00008
630.6 ,0.00008
630.7 ,0.00008
630.8 ,0.00008
630.9 ,0.00008
631.0 ,0.00008
631.1 ,0.00008
631.2 ,0.00008
631.3 ,0.00008
631.4 ,0.00008
631.5 ,0.00008
631.6 ,0.00008
631.7 ,0.00008
631.8 ,0.00008
631.9 ,0.00008
632.0 ,0.00008
632.1 ,0.00008
632.2 ,0.00008
632.3 ,0.00008
632.4 ,0.00008
632.5 ,0.00008
632.6 ,0.00007
632.7 ,0.00007
632.8 ,0.00007
632.9 ,0.00007
633.0 ,0.00007
633.1 ,0.00007
633.2 ,0.00007
633.3 ,0.00007
633.4 ,0.00007
633.5 ,0.00007
633.6 ,0.00007
633.7 ,0.00007
633.8 ,0.00007
633.9 ,0.00007
634.0 ,0.00007
634.1 ,0.00007
634.2 ,0.00007
634.3 ,0.00007
634.4 ,0.00007
634.5 ,0.00007
634.6 ,0.00007
634.7 ,0.00007
634.8 ,0.00007
634.9 ,0.00007
635.0 ,0.00007
635.1 ,0.00007
635.2 ,0.00007
635.3 ,0.00007
635.4 ,0.00007
635.5 ,0.00007
635.6 ,0.00007
635.7 ,0.00007
635.8 ,0.00007
635.9 ,0.00007
636.0 ,0.00007
636.1 ,0.00007
636.2 ,0.00008
636.3 ,0.00008
636.4 ,0.00008
636.5 ,0.00008
636.6 ,0.00008
636.7 ,0.00008
636.8 ,0.00008
636.9 ,0.00008
637.0 ,0.00008
637.1 ,0.00008
637.2 ,0.00008
637.3 ,0.00008
637.4 ,0.00008
637.5 ,0.00008
637.6 ,0.00008
637.7 ,0.00008
637.8 ,0.00009
637.9 ,0.00009
638.0 ,0.00009
638.1 ,0.00009
638.2 ,0.00009
638.3 ,0.00009
638.4 ,0.00009
638.5 ,0.00009
638.6 ,0.00009
638.7 ,0.0001
638.8 ,0.0001
638.9 ,0.0001
639.0 ,0.0001
639.1 ,0.0001
639.2 ,0.0001
639.3 ,0.0001
639.4 ,0.00011
639.5 ,0.00011
639.6 ,0.00011
639.7 ,0.00011
639.8 ,0.00011
639.9 ,0.00011
640.0 ,0.00011
640.1 ,0.00012
640.2 ,0.00012
640.3 ,0.00012
640.4 ,0.00012
640.5 ,0.00012
640.6 ,0.00013
640.7 ,0.00013
640.8 ,0.00013
640.9 ,0.00013
641.0 ,0.00013
641.1 ,0.00014
641.2 ,0.00014
641.3 ,0.00014
641.4 ,0.00014
641.5 ,0.00014
641.6 ,0.00015
641.7 ,0.00015
641.8 ,0.00015
641.9 ,0.00015
642.0 ,0.00015
642.1 ,0.00016
642.2 ,0.00016
642.3 ,0.00016
642.4 ,0.00016
642.5 ,0.00017
642.6 ,0.00017
642.7 ,0.00017
642.8 ,0.00017
642.9 ,0.00017
643.0 ,0.00018
643.1 ,0.00018
643.2 ,0.00018
643.3 ,0.00018
643.4 ,0.00019
643.5 ,0.00019
643.6 ,0.00019
643.7 ,0.00019
643.8 ,0.0002
643.9 ,0.0002
644.0 ,0.0002
644.1 ,0.0002
644.2 ,0.0002
644.3 ,0.00021
644.4 ,0.00021
644.5 ,0.00021
644.6 ,0.00021
644.7 ,0.00022
644.8 ,0.00022
644.9 ,0.00022
645.0 ,0.00022
645.1 ,0.00023
645.2 ,0.00023
645.3 ,0.00023
645.4 ,0.00024
645.5 ,0.00024
645.6 ,0.00024
645.7 ,0.00024
645.8 ,0.00025
645.9 ,0.00025
646.0 ,0.00025
646.1 ,0.00026
646.2 ,0.00026
646.3 ,0.00026
646.4 ,0.00026
646.5 ,0.00027
646.6 ,0.00027
646.7 ,0.00028
646.8 ,0.00028
646.9 ,0.00028
647.0 ,0.00029
647.1 ,0.00029
647.2 ,0.0003
647.3 ,0.0003
647.4 ,0.0003
647.5 ,0.00031
647.6 ,0.00031
647.7 ,0.00032
647.8 ,0.00032
647.9 ,0.00033
648.0 ,0.00033
648.1 ,0.00034
648.2 ,0.00034
648.3 ,0.00035
648.4 ,0.00035
648.5 ,0.00036
648.6 ,0.00037
648.7 ,0.00037
648.8 ,0.00038
648.9 ,0.00038
649.0 ,0.00039
649.1 ,0.0004
649.2 ,0.0004
649.3 ,0.00041
649.4 ,0.00041
649.5 ,0.00042
649.6 ,0.00043
649.7 ,0.00043
649.8 ,0.00044
649.9 ,0.00045
650.0 ,0.00045
650.1 ,0.00046
650.2 ,0.00047
650.3 ,0.00047
650.4 ,0.00048
650.5 ,0.00048
650.6 ,0.00049
650.7 ,0.00049
650.8 ,0.0005
650.9 ,0.0005
651.0 ,0.00051
651.1 ,0.00051
651.2 ,0.00051
651.3 ,0.00052
651.4 ,0.00052
651.5 ,0.00052
651.6 ,0.00052
651.7 ,0.00053
651.8 ,0.00053
651.9 ,0.00053
652.0 ,0.00053
652.1 ,0.00053
652.2 ,0.00052
652.3 ,0.00052
652.4 ,0.00052
652.5 ,0.00052
652.6 ,0.00051
652.7 ,0.00051
652.8 ,0.0005
652.9 ,0.0005
653.0 ,0.00049
653.1 ,0.00049
653.2 ,0.00048
653.3 ,0.00048
653.4 ,0.00047
653.5 ,0.00047
653.6 ,0.00046
653.7 ,0.00045
653.8 ,0.00045
653.9 ,0.00044
654.0 ,0.00043
654.1 ,0.00042
654.2 ,0.00042
654.3 ,0.00041
654.4 ,0.0004
654.5 ,0.00039
654.6 ,0.00038
654.7 ,0.00038
654.8 ,0.00037
654.9 ,0.00036
655.0 ,0.00035
655.1 ,0.00035
655.2 ,0.00034
655.3 ,0.00033
655.4 ,0.00033
655.5 ,0.00032
655.6 ,0.00031
655.7 ,0.00031
655.8 ,0.0003
655.9 ,0.00029
656.0 ,0.00029
656.1 ,0.00028
656.2 ,0.00028
656.3 ,0.00027
656.4 ,0.00027
656.5 ,0.00026
656.6 ,0.00026
656.7 ,0.00025
656.8 ,0.00025
656.9 ,0.00024
657.0 ,0.00024
657.1 ,0.00023
657.2 ,0.00023
657.3 ,0.00022
657.4 ,0.00022
657.5 ,0.00021
657.6 ,0.00021
657.7 ,0.00021
657.8 ,0.0002
657.9 ,0.0002
658.0 ,0.0002
658.1 ,0.00019
658.2 ,0.00019
658.3 ,0.00019
658.4 ,0.00019
658.5 ,0.00018
658.6 ,0.00018
658.7 ,0.00018
658.8 ,0.00018
658.9 ,0.00018
659.0 ,0.00018
659.1 ,0.00018
659.2 ,0.00017
659.3 ,0.00017
659.4 ,0.00017
659.5 ,0.00017
659.6 ,0.00017
659.7 ,0.00017
659.8 ,0.00017
659.9 ,0.00016
660.0 ,0.00016
660.1 ,0.00016
660.2 ,0.00016
660.3 ,0.00016
660.4 ,0.00016
660.5 ,0.00016
660.6 ,0.00016
660.7 ,0.00016
660.8 ,0.00016
660.9 ,0.00016
661.0 ,0.00016
661.1 ,0.00016
661.2 ,0.00016
661.3 ,0.00016
661.4 ,0.00016
661.5 ,0.00016
661.6 ,0.00017
661.7 ,0.00017
661.8 ,0.00017
661.9 ,0.00017
662.0 ,0.00017
662.1 ,0.00017
662.2 ,0.00018
662.3 ,0.00018
662.4 ,0.00018
662.5 ,0.00018
662.6 ,0.00018
662.7 ,0.00018
662.8 ,0.00019
662.9 ,0.00019
663.0 ,0.00019
663.1 ,0.00019
663.2 ,0.00019
663.3 ,0.0002
663.4 ,0.0002
663.5 ,0.0002
663.6 ,0.0002
663.7 ,0.00021
663.8 ,0.00021
663.9 ,0.00021
664.0 ,0.00021
664.1 ,0.00022
664.2 ,0.00022
664.3 ,0.00023
664.4 ,0.00023
664.5 ,0.00023
664.6 ,0.00024
664.7 ,0.00024
664.8 ,0.00024
664.9 ,0.00025
665.0 ,0.00025
665.1 ,0.00026
665.2 ,0.00026
665.3 ,0.00026
665.4 ,0.00027
665.5 ,0.00027
665.6 ,0.00027
665.7 ,0.00028
665.8 ,0.00028
665.9 ,0.00028
666.0 ,0.00029
666.1 ,0.00029
666.2 ,0.00029
666.3 ,0.00029
666.4 ,0.0003
666.5 ,0.0003
666.6 ,0.0003
666.7 ,0.00031
666.8 ,0.00031
666.9 ,0.00031
667.0 ,0.00031
667.1 ,0.00032
667.2 ,0.00032
667.3 ,0.00033
667.4 ,0.00033
667.5 ,0.00033
667.6 ,0.00034
667.7 ,0.00034
667.8 ,0.00035
667.9 ,0.00035
668.0 ,0.00035
668.1 ,0.00036
668.2 ,0.00036
668.3 ,0.00036
668.4 ,0.00037
668.5 ,0.00037
668.6 ,0.00037
668.7 ,0.00038
668.8 ,0.00038
668.9 ,0.00039
669.0 ,0.00039
669.1 ,0.00039
669.2 ,0.0004
669.3 ,0.0004
669.4 ,0.0004
669.5 ,0.0004
669.6 ,0.00041
669.7 ,0.00041
669.8 ,0.00041
669.9 ,0.00042
670.0 ,0.00042
670.1 ,0.00042
670.2 ,0.00042
670.3 ,0.00043
670.4 ,0.00043
670.5 ,0.00043
670.6 ,0.00043
670.7 ,0.00043
670.8 ,0.00044
670.9 ,0.00044
671.0 ,0.00044
671.1 ,0.00044
671.2 ,0.00044
671.3 ,0.00044
671.4 ,0.00045
671.5 ,0.00045
671.6 ,0.00045
671.7 ,0.00045
671.8 ,0.00045
671.9 ,0.00045
672.0 ,0.00045
672.1 ,0.00045
672.2 ,0.00045
672.3 ,0.00045
672.4 ,0.00045
672.5 ,0.00045
672.6 ,0.00045
672.7 ,0.00045
672.8 ,0.00045
672.9 ,0.00045
673.0 ,0.00045
673.1 ,0.00044
673.2 ,0.00044
673.3 ,0.00044
673.4 ,0.00044
673.5 ,0.00044
673.6 ,0.00044
673.7 ,0.00044
673.8 ,0.00044
673.9 ,0.00044
674.0 ,0.00044
674.1 ,0.00044
674.2 ,0.00044
674.3 ,0.00045
674.4 ,0.00045
674.5 ,0.00045
674.6 ,0.00045
674.7 ,0.00045
674.8 ,0.00046
674.9 ,0.00046
675.0 ,0.00046
675.1 ,0.00046
675.2 ,0.00047
675.3 ,0.00047
675.4 ,0.00048
675.5 ,0.00048
675.6 ,0.00049
675.7 ,0.00049
675.8 ,0.0005
675.9 ,0.00051
676.0 ,0.00052
676.1 ,0.00052
676.2 ,0.00053
676.3 ,0.00054
676.4 ,0.00055
676.5 ,0.00056
676.6 ,0.00057
676.7 ,0.00059
676.8 ,0.0006
676.9 ,0.00061
677.0 ,0.00062
677.1 ,0.00064
677.2 ,0.00065
677.3 ,0.00067
677.4 ,0.00068
677.5 ,0.0007
677.6 ,0.00071
677.7 ,0.00073
677.8 ,0.00075
677.9 ,0.00077
678.0 ,0.00078
678.1 ,0.0008
678.2 ,0.00082
678.3 ,0.00084
678.4 ,0.00086
678.5 ,0.00088
678.6 ,0.0009
678.7 ,0.00092
678.8 ,0.00094
678.9 ,0.00096
679.0 ,0.00098
679.1 ,0.001
679.2 ,0.00101
679.3 ,0.00103
679.4 ,0.00105
679.5 ,0.00106
679.6 ,0.00108
679.7 ,0.00109
679.8 ,0.00111
679.9 ,0.00112
680.0 ,0.00113
680.1 ,0.00114
680.2 ,0.00114
680.3 ,0.00115
680.4 ,0.00115
680.5 ,0.00116
680.6 ,0.00116
680.7 ,0.00116
680.8 ,0.00115
680.9 ,0.00115
681.0 ,0.00115
681.1 ,0.00114
681.2 ,0.00113
681.3 ,0.00112
681.4 ,0.00111
681.5 ,0.00109
681.6 ,0.00108
681.7 ,0.00106
681.8 ,0.00104
681.9 ,0.00103
682.0 ,0.00101
682.1 ,0.00098
682.2 ,0.00096
682.3 ,0.00094
682.4 ,0.00092
682.5 ,0.00089
682.6 ,0.00087
682.7 ,0.00084
682.8 ,0.00082
682.9 ,0.00079
683.0 ,0.00077
683.1 ,0.00074
683.2 ,0.00072
683.3 ,0.0007
683.4 ,0.00067
683.5 ,0.00065
683.6 ,0.00062
683.7 ,0.0006
683.8 ,0.00058
683.9 ,0.00056
684.0 ,0.00054
684.1 ,0.00052
684.2 ,0.0005
684.3 ,0.00048
684.4 ,0.00046
684.5 ,0.00044
684.6 ,0.00043
684.7 ,0.00041
684.8 ,0.00039
684.9 ,0.00038
685.0 ,0.00037
685.1 ,0.00035
685.2 ,0.00034
685.3 ,0.00033
685.4 ,0.00032
685.5 ,0.00031
685.6 ,0.00029
685.7 ,0.00029
685.8 ,0.00028
685.9 ,0.00027
686.0 ,0.00026
686.1 ,0.00025
686.2 ,0.00024
686.3 ,0.00024
686.4 ,0.00023
686.5 ,0.00022
686.6 ,0.00022
686.7 ,0.00021
686.8 ,0.00021
686.9 ,0.0002
687.0 ,0.0002
687.1 ,0.00019
687.2 ,0.00019
687.3 ,0.00019
687.4 ,0.00018
687.5 ,0.00018
687.6 ,0.00018
687.7 ,0.00017
687.8 ,0.00017
687.9 ,0.00017
688.0 ,0.00017
688.1 ,0.00016
688.2 ,0.00016
688.3 ,0.00016
688.4 ,0.00016
688.5 ,0.00016
688.6 ,0.00016
688.7 ,0.00016
688.8 ,0.00016
688.9 ,0.00015
689.0 ,0.00015
689.1 ,0.00015
689.2 ,0.00015
689.3 ,0.00015
689.4 ,0.00015
689.5 ,0.00015
689.6 ,0.00015
689.7 ,0.00015
689.8 ,0.00016
689.9 ,0.00016
690.0 ,0.00016
690.1 ,0.00016
690.2 ,0.00016
690.3 ,0.00016
690.4 ,0.00016
690.5 ,0.00016
690.6 ,0.00017
690.7 ,0.00017
690.8 ,0.00017
690.9 ,0.00017
691.0 ,0.00018
691.1 ,0.00018
691.2 ,0.00018
691.3 ,0.00019
691.4 ,0.00019
691.5 ,0.00019
691.6 ,0.0002
691.7 ,0.0002
691.8 ,0.00021
691.9 ,0.00021
692.0 ,0.00022
692.1 ,0.00022
692.2 ,0.00023
692.3 ,0.00023
692.4 ,0.00024
692.5 ,0.00024
692.6 ,0.00025
692.7 ,0.00026
692.8 ,0.00026
692.9 ,0.00027
693.0 ,0.00028
693.1 ,0.00029
693.2 ,0.0003
693.3 ,0.00031
693.4 ,0.00032
693.5 ,0.00033
693.6 ,0.00034
693.7 ,0.00035
693.8 ,0.00036
693.9 ,0.00037
694.0 ,0.00038
694.1 ,0.00039
694.2 ,0.0004
694.3 ,0.00042
694.4 ,0.00043
694.5 ,0.00044
694.6 ,0.00045
694.7 ,0.00047
694.8 ,0.00048
694.9 ,0.00049
695.0 ,0.00051
695.1 ,0.00052
695.2 ,0.00053
695.3 ,0.00054
695.4 ,0.00055
695.5 ,0.00056
695.6 ,0.00057
695.7 ,0.00058
695.8 ,0.00059
695.9 ,0.0006
696.0 ,0.00061
696.1 ,0.00061
696.2 ,0.00062
696.3 ,0.00062
696.4 ,0.00062
696.5 ,0.00062
696.6 ,0.00062
696.7 ,0.00062
696.8 ,0.00062
696.9 ,0.00062
697.0 ,0.00061
697.1 ,0.00061
697.2 ,0.0006
697.3 ,0.00059
697.4 ,0.00059
697.5 ,0.00058
697.6 ,0.00057
697.7 ,0.00056
697.8 ,0.00055
697.9 ,0.00054
698.0 ,0.00052
698.1 ,0.00051
698.2 ,0.0005
698.3 ,0.00049
698.4 ,0.00048
698.5 ,0.00047
698.6 ,0.00045
698.7 ,0.00044
698.8 ,0.00043
698.9 ,0.00042
699.0 ,0.00041
699.1 ,0.0004
699.2 ,0.00039
699.3 ,0.00038
699.4 ,0.00037
699.5 ,0.00036
699.6 ,0.00035
699.7 ,0.00034
699.8 ,0.00034
699.9 ,0.00033
700.0 ,0.00032
700.1 ,0.00031
700.2 ,0.00031
700.3 ,0.0003
700.4 ,0.00029
700.5 ,0.00029
700.6 ,0.00028
700.7 ,0.00028
700.8 ,0.00027
700.9 ,0.00027
701.0 ,0.00026
701.1 ,0.00026
701.2 ,0.00025
701.3 ,0.00025
701.4 ,0.00025
701.5 ,0.00024
701.6 ,0.00024
701.7 ,0.00024
701.8 ,0.00024
701.9 ,0.00023
702.0 ,0.00023
702.1 ,0.00023
702.2 ,0.00023
702.3 ,0.00023
702.4 ,0.00022
702.5 ,0.00022
702.6 ,0.00022
702.7 ,0.00022
702.8 ,0.00022
702.9 ,0.00022
703.0 ,0.00022
703.1 ,0.00022
703.2 ,0.00022
703.3 ,0.00022
703.4 ,0.00022
703.5 ,0.00022
703.6 ,0.00022
703.7 ,0.00023
703.8 ,0.00023
703.9 ,0.00023
704.0 ,0.00023
704.1 ,0.00023
704.2 ,0.00023
704.3 ,0.00024
704.4 ,0.00024
704.5 ,0.00024
704.6 ,0.00024
704.7 ,0.00025
704.8 ,0.00025
704.9 ,0.00025
705.0 ,0.00026
705.1 ,0.00026
705.2 ,0.00026
705.3 ,0.00027
705.4 ,0.00027
705.5 ,0.00028
705.6 ,0.00028
705.7 ,0.00029
705.8 ,0.00029
705.9 ,0.0003
706.0 ,0.0003
706.1 ,0.00031
706.2 ,0.00031
706.3 ,0.00032
706.4 ,0.00032
706.5 ,0.00033
706.6 ,0.00034
706.7 ,0.00034
706.8 ,0.00035
706.9 ,0.00035
707.0 ,0.00036
707.1 ,0.00037
707.2 ,0.00037
707.3 ,0.00038
707.4 ,0.00039
707.5 ,0.00039
707.6 ,0.0004
707.7 ,0.00041
707.8 ,0.00041
707.9 ,0.00042
708.0 ,0.00043
708.1 ,0.00043
708.2 ,0.00044
708.3 ,0.00045
708.4 ,0.00045
708.5 ,0.00046
708.6 ,0.00047
708.7 ,0.00047
708.8 ,0.00048
708.9 ,0.00049
709.0 ,0.00049
709.1 ,0.0005
709.2 ,0.00051
709.3 ,0.00051
709.4 ,0.00052
709.5 ,0.00053
709.6 ,0.00054
709.7 ,0.00054
709.8 ,0.00055
709.9 ,0.00056
710.0 ,0.00057
710.1 ,0.00057
710.2 ,0.00058
710.3 ,0.00059
710.4 ,0.0006
710.5 ,0.0006
710.6 ,0.00061
710.7 ,0.00062
710.8 ,0.00063
710.9 ,0.00063
711.0 ,0.00064
711.1 ,0.00065
711.2 ,0.00065
711.3 ,0.00066
711.4 ,0.00066
711.5 ,0.00067
711.6 ,0.00067
711.7 ,0.00067
711.8 ,0.00067
711.9 ,0.00067
712.0 ,0.00067
712.1 ,0.00067
712.2 ,0.00066
712.3 ,0.00066
712.4 ,0.00065
712.5 ,0.00065
712.6 ,0.00064
712.7 ,0.00063
712.8 ,0.00061
712.9 ,0.0006
713.0 ,0.00059
713.1 ,0.00057
713.2 ,0.00056
713.3 ,0.00054
713.4 ,0.00053
713.5 ,0.00051
713.6 ,0.00049
713.7 ,0.00048
713.8 ,0.00046
713.9 ,0.00044
714.0 ,0.00043
714.1 ,0.00041
714.2 ,0.0004
714.3 ,0.00038
714.4 ,0.00037
714.5 ,0.00035
714.6 ,0.00034
714.7 ,0.00032
714.8 ,0.00031
714.9 ,0.0003
715.0 ,0.00029
715.1 ,0.00028
715.2 ,0.00027
715.3 ,0.00026
715.4 ,0.00025
715.5 ,0.00024
715.6 ,0.00023
715.7 ,0.00022
715.8 ,0.00021
715.9 ,0.00021
716.0 ,0.0002
716.1 ,0.00019
716.2 ,0.00019
716.3 ,0.00018
716.4 ,0.00018
716.5 ,0.00017
716.6 ,0.00017
716.7 ,0.00016
716.8 ,0.00016
716.9 ,0.00015
717.0 ,0.00015
717.1 ,0.00015
717.2 ,0.00014
717.3 ,0.00014
717.4 ,0.00014
717.5 ,0.00013
717.6 ,0.00013
717.7 ,0.00013
717.8 ,0.00013
717.9 ,0.00013
718.0 ,0.00012
718.1 ,0.00012
718.2 ,0.00012
718.3 ,0.00012
718.4 ,0.00012
718.5 ,0.00011
718.6 ,0.00011
718.7 ,0.00011
718.8 ,0.00011
718.9 ,0.00011
719.0 ,0.00011
719.1 ,0.00011
719.2 ,0.00011
719.3 ,0.00011
719.4 ,0.00011
719.5 ,0.0001
719.6 ,0.0001
719.7 ,0.0001
719.8 ,0.0001
719.9 ,0.0001
720.0 ,0.0001
720.1 ,0.0001
720.2 ,0.0001
720.3 ,0.0001
720.4 ,0.0001
720.5 ,0.0001
720.6 ,0.0001
720.7 ,0.0001
720.8 ,0.0001
720.9 ,0.0001
721.0 ,0.0001
721.1 ,0.0001
721.2 ,0.0001
721.3 ,0.0001
721.4 ,0.0001
721.5 ,0.0001
721.6 ,0.0001
721.7 ,0.0001
721.8 ,0.0001
721.9 ,0.0001
722.0 ,0.0001
722.1 ,0.0001
722.2 ,0.0001
722.3 ,0.0001
722.4 ,0.0001
722.5 ,0.00011
722.6 ,0.00011
722.7 ,0.00011
722.8 ,0.00011
722.9 ,0.00011
723.0 ,0.00011
723.1 ,0.00011
723.2 ,0.00011
723.3 ,0.00011
723.4 ,0.00011
723.5 ,0.00011
723.6 ,0.00011
723.7 ,0.00011
723.8 ,0.00011
723.9 ,0.00011
724.0 ,0.00011
724.1 ,0.00011
724.2 ,0.00011
724.3 ,0.00011
724.4 ,0.00011
724.5 ,0.00012
724.6 ,0.00012
724.7 ,0.00012
724.8 ,0.00012
724.9 ,0.00012
725.0 ,0.00012
725.1 ,0.00012
725.2 ,0.00012
725.3 ,0.00012
725.4 ,0.00012
725.5 ,0.00012
725.6 ,0.00012
725.7 ,0.00012
725.8 ,0.00012
725.9 ,0.00012
726.0 ,0.00013
726.1 ,0.00013
726.2 ,0.00013
726.3 ,0.00013
726.4 ,0.00013
726.5 ,0.00013
726.6 ,0.00013
726.7 ,0.00013
726.8 ,0.00013
726.9 ,0.00013
727.0 ,0.00013
727.1 ,0.00013
727.2 ,0.00013
727.3 ,0.00014
727.4 ,0.00014
727.5 ,0.00014
727.6 ,0.00014
727.7 ,0.00014
727.8 ,0.00014
727.9 ,0.00014
728.0 ,0.00014
728.1 ,0.00014
728.2 ,0.00014
728.3 ,0.00014
728.4 ,0.00014
728.5 ,0.00014
728.6 ,0.00014
728.7 ,0.00014
728.8 ,0.00015
728.9 ,0.00015
729.0 ,0.00015
729.1 ,0.00015
729.2 ,0.00015
729.3 ,0.00015
729.4 ,0.00015
729.5 ,0.00015
729.6 ,0.00015
729.7 ,0.00015
729.8 ,0.00015
729.9 ,0.00015
730.0 ,0.00015
730.1 ,0.00015
730.2 ,0.00015
730.3 ,0.00015
730.4 ,0.00015
730.5 ,0.00015
730.6 ,0.00015
730.7 ,0.00015
730.8 ,0.00015
730.9 ,0.00015
731.0 ,0.00015
731.1 ,0.00015
731.2 ,0.00015
731.3 ,0.00015
731.4 ,0.00015
731.5 ,0.00015
731.6 ,0.00015
731.7 ,0.00015
731.8 ,0.00015
731.9 ,0.00015
732.0 ,0.00015
732.1 ,0.00015
732.2 ,0.00015
732.3 ,0.00015
732.4 ,0.00015
732.5 ,0.00015
732.6 ,0.00015
732.7 ,0.00015
732.8 ,0.00015
732.9 ,0.00015
733.0 ,0.00015
733.1 ,0.00015
733.2 ,0.00015
733.3 ,0.00016
733.4 ,0.00016
733.5 ,0.00016
733.6 ,0.00016
733.7 ,0.00016
733.8 ,0.00016
733.9 ,0.00016
734.0 ,0.00017
734.1 ,0.00017
734.2 ,0.00017
734.3 ,0.00017
734.4 ,0.00018
734.5 ,0.00018
734.6 ,0.00018
734.7 ,0.00018
734.8 ,0.00019
734.9 ,0.00019
735.0 ,0.0002
735.1 ,0.0002
735.2 ,0.0002
735.3 ,0.00021
735.4 ,0.00021
735.5 ,0.00022
735.6 ,0.00022
735.7 ,0.00023
735.8 ,0.00024
735.9 ,0.00024
736.0 ,0.00025
736.1 ,0.00026
736.2 ,0.00026
736.3 ,0.00027
736.4 ,0.00028
736.5 ,0.00029
736.6 ,0.0003
736.7 ,0.00031
736.8 ,0.00032
736.9 ,0.00033
737.0 ,0.00035
737.1 ,0.00036
737.2 ,0.00037
737.3 ,0.00039
737.4 ,0.00041
737.5 ,0.00042
737.6 ,0.00044
737.7 ,0.00046
737.8 ,0.00048
737.9 ,0.0005
738.0 ,0.00052
738.1 ,0.00054
738.2 ,0.00056
738.3 ,0.00059
738.4 ,0.00061
738.5 ,0.00063
738.6 ,0.00066
738.7 ,0.00068
738.8 ,0.00071
738.9 ,0.00074
739.0 ,0.00076
739.1 ,0.00079
739.2 ,0.00081
739.3 ,0.00084
739.4 ,0.00086
739.5 ,0.00088
739.6 ,0.0009
739.7 ,0.00092
739.8 ,0.00094
739.9 ,0.00095
740.0 ,0.00097
740.1 ,0.00098
740.2 ,0.00099
740.3 ,0.00099
740.4 ,0.001
740.5 ,0.001
740.6 ,0.001
740.7 ,0.001
740.8 ,0.001
740.9 ,0.001
741.0 ,0.00099
741.1 ,0.00098
741.2 ,0.00098
741.3 ,0.00097
741.4 ,0.00096
741.5 ,0.00095
741.6 ,0.00094
741.7 ,0.00093
741.8 ,0.00092
741.9 ,0.00091
742.0 ,0.0009
742.1 ,0.0009
742.2 ,0.00089
742.3 ,0.00088
742.4 ,0.00087
742.5 ,0.00086
742.6 ,0.00086
742.7 ,0.00085
742.8 ,0.00084
742.9 ,0.00084
743.0 ,0.00083
743.1 ,0.00083
743.2 ,0.00082
743.3 ,0.00082
743.4 ,0.00082
743.5 ,0.00081
743.6 ,0.00081
743.7 ,0.00081
743.8 ,0.00081
743.9 ,0.00081
744.0 ,0.00081
744.1 ,0.00081
744.2 ,0.00081
744.3 ,0.00081
744.4 ,0.00081
744.5 ,0.00081
744.6 ,0.00081
744.7 ,0.00081
744.8 ,0.00081
744.9 ,0.00081
745.0 ,0.00081
745.1 ,0.00082
745.2 ,0.00082
745.3 ,0.00082
745.4 ,0.00082
745.5 ,0.00082
745.6 ,0.00082
745.7 ,0.00082
745.8 ,0.00082
745.9 ,0.00082
746.0 ,0.00082
746.1 ,0.00082
746.2 ,0.00082
746.3 ,0.00081
746.4 ,0.00081
746.5 ,0.00081
746.6 ,0.00081
746.7 ,0.0008
746.8 ,0.0008
746.9 ,0.0008
747.0 ,0.00079
747.1 ,0.00079
747.2 ,0.00078
747.3 ,0.00078
747.4 ,0.00077
747.5 ,0.00076
747.6 ,0.00076
747.7 ,0.00075
747.8 ,0.00075
747.9 ,0.00074
748.0 ,0.00074
748.1 ,0.00073
748.2 ,0.00072
748.3 ,0.00072
748.4 ,0.00071
748.5 ,0.00071
748.6 ,0.0007
748.7 ,0.00069
748.8 ,0.00069
748.9 ,0.00069
749.0 ,0.00068
749.1 ,0.00068
749.2 ,0.00067
749.3 ,0.00067
749.4 ,0.00067
749.5 ,0.00066
749.6 ,0.00066
749.7 ,0.00066
749.8 ,0.00066
749.9 ,0.00066
750.0 ,0.00065
750.1 ,0.00065
750.2 ,0.00065
750.3 ,0.00065
750.4 ,0.00065
750.5 ,0.00066
750.6 ,0.00066
750.7 ,0.00066
750.8 ,0.00066
750.9 ,0.00067
751.0 ,0.00067
751.1 ,0.00067
751.2 ,0.00068
751.3 ,0.00068
751.4 ,0.00069
751.5 ,0.00069
751.6 ,0.0007
751.7 ,0.00071
751.8 ,0.00071
751.9 ,0.00072
752.0 ,0.00073
752.1 ,0.00074
752.2 ,0.00075
752.3 ,0.00075
752.4 ,0.00076
752.5 ,0.00077
752.6 ,0.00078
752.7 ,0.00079
752.8 ,0.0008
752.9 ,0.00081
753.0 ,0.00082
753.1 ,0.00083
753.2 ,0.00084
753.3 ,0.00085
753.4 ,0.00085
753.5 ,0.00086
753.6 ,0.00087
753.7 ,0.00088
753.8 ,0.00088
753.9 ,0.00089
754.0 ,0.00089
754.1 ,0.00089
754.2 ,0.0009
754.3 ,0.0009
754.4 ,0.0009
754.5 ,0.0009
754.6 ,0.00089
754.7 ,0.00089
754.8 ,0.00089
754.9 ,0.00088
755.0 ,0.00087
755.1 ,0.00086
755.2 ,0.00086
755.3 ,0.00085
755.4 ,0.00084
755.5 ,0.00082
755.6 ,0.00081
755.7 ,0.0008
755.8 ,0.00079
755.9 ,0.00077
756.0 ,0.00076
756.1 ,0.00075
756.2 ,0.00073
756.3 ,0.00072
756.4 ,0.00071
756.5 ,0.00069
756.6 ,0.00068
756.7 ,0.00067
756.8 ,0.00065
756.9 ,0.00064
757.0 ,0.00063
757.1 ,0.00062
757.2 ,0.00061
757.3 ,0.00059
757.4 ,0.00058
757.5 ,0.00057
757.6 ,0.00056
757.7 ,0.00055
757.8 ,0.00054
757.9 ,0.00054
758.0 ,0.00053
758.1 ,0.00052
758.2 ,0.00051
758.3 ,0.00051
758.4 ,0.0005
758.5 ,0.0005
758.6 ,0.00049
758.7 ,0.00049
758.8 ,0.00048
758.9 ,0.00048
759.0 ,0.00048
759.1 ,0.00047
759.2 ,0.00047
759.3 ,0.00047
759.4 ,0.00046
759.5 ,0.00046
759.6 ,0.00046
759.7 ,0.00046
759.8 ,0.00046
759.9 ,0.00046
760.0 ,0.00046
760.1 ,0.00046
760.2 ,0.00046
760.3 ,0.00046
760.4 ,0.00046
760.5 ,0.00047
760.6 ,0.00047
760.7 ,0.00047
760.8 ,0.00048
760.9 ,0.00048
761.0 ,0.00048
761.1 ,0.00049
761.2 ,0.00049
761.3 ,0.0005
761.4 ,0.0005
761.5 ,0.00051
761.6 ,0.00051
761.7 ,0.00052
761.8 ,0.00053
761.9 ,0.00054
762.0 ,0.00054
762.1 ,0.00055
762.2 ,0.00056
762.3 ,0.00057
762.4 ,0.00058
762.5 ,0.0006
762.6 ,0.00061
762.7 ,0.00062
762.8 ,0.00063
762.9 ,0.00065
763.0 ,0.00066
763.1 ,0.00068
763.2 ,0.00069
763.3 ,0.0007
763.4 ,0.00072
763.5 ,0.00073
763.6 ,0.00075
763.7 ,0.00076
763.8 ,0.00078
763.9 ,0.0008
764.0 ,0.00081
764.1 ,0.00083
764.2 ,0.00085
764.3 ,0.00087
764.4 ,0.00089
764.5 ,0.00091
764.6 ,0.00092
764.7 ,0.00094
764.8 ,0.00096
764.9 ,0.00098
765.0 ,0.00099
765.1 ,0.00101
765.2 ,0.00102
765.3 ,0.00103
765.4 ,0.00104
765.5 ,0.00105
765.6 ,0.00106
765.7 ,0.00107
765.8 ,0.00107
765.9 ,0.00108
766.0 ,0.00108
766.1 ,0.00108
766.2 ,0.00108
766.3 ,0.00108
766.4 ,0.00108
766.5 ,0.00107
766.6 ,0.00107
766.7 ,0.00106
766.8 ,0.00105
766.9 ,0.00104
767.0 ,0.00103
767.1 ,0.00102
767.2 ,0.001
767.3 ,0.00099
767.4 ,0.00097
767.5 ,0.00095
767.6 ,0.00094
767.7 ,0.00092
767.8 ,0.0009
767.9 ,0.00088
768.0 ,0.00086
768.1 ,0.00084
768.2 ,0.00082
768.3 ,0.0008
768.4 ,0.00078
768.5 ,0.00076
768.6 ,0.00075
768.7 ,0.00073
768.8 ,0.00071
768.9 ,0.00069
769.0 ,0.00067
769.1 ,0.00065
769.2 ,0.00063
769.3 ,0.00062
769.4 ,0.0006
769.5 ,0.00058
769.6 ,0.00056
769.7 ,0.00055
769.8 ,0.00053
769.9 ,0.00052
770.0 ,0.0005
770.1 ,0.00049
770.2 ,0.00047
770.3 ,0.00046
770.4 ,0.00045
770.5 ,0.00044
770.6 ,0.00043
770.7 ,0.00041
770.8 ,0.0004
770.9 ,0.00039
771.0 ,0.00038
771.1 ,0.00037
771.2 ,0.00036
771.3 ,0.00035
771.4 ,0.00034
771.5 ,0.00033
771.6 ,0.00032
771.7 ,0.00031
771.8 ,0.00031
771.9 ,0.0003
772.0 ,0.00029
772.1 ,0.00028
772.2 ,0.00028
772.3 ,0.00027
772.4 ,0.00027
772.5 ,0.00026
772.6 ,0.00025
772.7 ,0.00025
772.8 ,0.00024
772.9 ,0.00024
773.0 ,0.00023
773.1 ,0.00023
773.2 ,0.00022
773.3 ,0.00022
773.4 ,0.00022
773.5 ,0.00021
773.6 ,0.00021
773.7 ,0.0002
773.8 ,0.0002
773.9 ,0.0002
774.0 ,0.00019
774.1 ,0.00019
774.2 ,0.00019
774.3 ,0.00018
774.4 ,0.00018
774.5 ,0.00018
774.6 ,0.00018
774.7 ,0.00017
774.8 ,0.00017
774.9 ,0.00017
775.0 ,0.00017
775.1 ,0.00017
775.2 ,0.00016
775.3 ,0.00016
775.4 ,0.00016
775.5 ,0.00016
775.6 ,0.00016
775.7 ,0.00016
775.8 ,0.00015
775.9 ,0.00015
776.0 ,0.00015
776.1 ,0.00015
776.2 ,0.00015
776.3 ,0.00015
776.4 ,0.00015
776.5 ,0.00015
776.6 ,0.00015
776.7 ,0.00015
776.8 ,0.00015
776.9 ,0.00015
777.0 ,0.00015
777.1 ,0.00015
777.2 ,0.00015
777.3 ,0.00015
777.4 ,0.00015
777.5 ,0.00015
777.6 ,0.00015
777.7 ,0.00015
777.8 ,0.00015
777.9 ,0.00015
778.0 ,0.00015
778.1 ,0.00015
778.2 ,0.00015
778.3 ,0.00015
778.4 ,0.00015
778.5 ,0.00015
778.6 ,0.00015
778.7 ,0.00015
778.8 ,0.00015
778.9 ,0.00015
779.0 ,0.00015
779.1 ,0.00015
779.2 ,0.00015
779.3 ,0.00016
779.4 ,0.00016
779.5 ,0.00016
779.6 ,0.00016
779.7 ,0.00016
779.8 ,0.00017
779.9 ,0.00017
780.0 ,0.00017
780.1 ,0.00017
780.2 ,0.00017
780.3 ,0.00018
780.4 ,0.00018
780.5 ,0.00018
780.6 ,0.00018
780.7 ,0.00018
780.8 ,0.00019
780.9 ,0.00019
781.0 ,0.00019
781.1 ,0.00019
781.2 ,0.0002
781.3 ,0.0002
781.4 ,0.00021
781.5 ,0.00021
781.6 ,0.00021
781.7 ,0.00022
781.8 ,0.00022
781.9 ,0.00023
782.0 ,0.00023
782.1 ,0.00023
782.2 ,0.00024
782.3 ,0.00024
782.4 ,0.00024
782.5 ,0.00025
782.6 ,0.00025
782.7 ,0.00025
782.8 ,0.00026
782.9 ,0.00026
783.0 ,0.00027
783.1 ,0.00027
783.2 ,0.00027
783.3 ,0.00028
783.4 ,0.00028
783.5 ,0.00028
783.6 ,0.00029
783.7 ,0.00029
783.8 ,0.0003
783.9 ,0.0003
784.0 ,0.0003
784.1 ,0.00031
784.2 ,0.00031
784.3 ,0.00032
784.4 ,0.00032
784.5 ,0.00033
784.6 ,0.00033
784.7 ,0.00034
784.8 ,0.00034
784.9 ,0.00035
785.0 ,0.00035
785.1 ,0.00036
785.2 ,0.00036
785.3 ,0.00036
785.4 ,0.00036
785.5 ,0.00037
785.6 ,0.00037
785.7 ,0.00037
785.8 ,0.00037
785.9 ,0.00037
786.0 ,0.00037
786.1 ,0.00038
786.2 ,0.00038
786.3 ,0.00038
786.4 ,0.00038
786.5 ,0.00038
786.6 ,0.00038
786.7 ,0.00038
786.8 ,0.00038
786.9 ,0.00038
787.0 ,0.00038
787.1 ,0.00038
787.2 ,0.00038
787.3 ,0.00038
787.4 ,0.00038
787.5 ,0.00038
787.6 ,0.00038
787.7 ,0.00038
787.8 ,0.00037
787.9 ,0.00037
788.0 ,0.00037
788.1 ,0.00037
788.2 ,0.00037
788.3 ,0.00037
788.4 ,0.00036
788.5 ,0.00036
788.6 ,0.00036
788.7 ,0.00036
788.8 ,0.00035
788.9 ,0.00035
789.0 ,0.00035
789.1 ,0.00035
789.2 ,0.00035
789.3 ,0.00034
789.4 ,0.00034
789.5 ,0.00034
789.6 ,0.00034
789.7 ,0.00034
789.8 ,0.00033
789.9 ,0.00033
790.0 ,0.00033
790.1 ,0.00033
790.2 ,0.00032
790.3 ,0.00032
790.4 ,0.00032
790.5 ,0.00032
790.6 ,0.00032
790.7 ,0.00031
790.8 ,0.00031
790.9 ,0.00031
791.0 ,0.00031
791.1 ,0.0003
791.2 ,0.0003
791.3 ,0.0003
791.4 ,0.0003
791.5 ,0.0003
791.6 ,0.0003
791.7 ,0.00029
791.8 ,0.00029
791.9 ,0.00029
792.0 ,0.00029
792.1 ,0.00029
792.2 ,0.00028
792.3 ,0.00028
792.4 ,0.00028
792.5 ,0.00028
792.6 ,0.00028
792.7 ,0.00028
792.8 ,0.00028
792.9 ,0.00027
793.0 ,0.00027
793.1 ,0.00027
793.2 ,0.00027
793.3 ,0.00027
793.4 ,0.00027
793.5 ,0.00027
793.6 ,0.00027
793.7 ,0.00027
793.8 ,0.00026
793.9 ,0.00026
794.0 ,0.00026
794.1 ,0.00026
794.2 ,0.00026
794.3 ,0.00026
794.4 ,0.00026
794.5 ,0.00026
794.6 ,0.00026
794.7 ,0.00026
794.8 ,0.00026
794.9 ,0.00026
795.0 ,0.00026
795.1 ,0.00026
795.2 ,0.00026
795.3 ,0.00026
795.4 ,0.00025
795.5 ,0.00025
795.6 ,0.00025
795.7 ,0.00025
795.8 ,0.00025
795.9 ,0.00025
796.0 ,0.00025
796.1 ,0.00025
796.2 ,0.00025
796.3 ,0.00025
796.4 ,0.00025
796.5 ,0.00025
796.6 ,0.00026
796.7 ,0.00026
796.8 ,0.00026
796.9 ,0.00026
797.0 ,0.00026
797.1 ,0.00026
797.2 ,0.00026
797.3 ,0.00026
797.4 ,0.00026
797.5 ,0.00026
797.6 ,0.00026
797.7 ,0.00026
797.8 ,0.00026
797.9 ,0.00026
798.0 ,0.00026
798.1 ,0.00026
798.2 ,0.00026
798.3 ,0.00027
798.4 ,0.00027
798.5 ,0.00027
798.6 ,0.00027
798.7 ,0.00027
798.8 ,0.00027
798.9 ,0.00027
799.0 ,0.00027
799.1 ,0.00028
799.2 ,0.00028
799.3 ,0.00028
799.4 ,0.00028
799.5 ,0.00028
799.6 ,0.00028
799.7 ,0.00029
799.8 ,0.00029
799.9 ,0.00029
800.0 ,0.00029
800.1 ,0.00029
800.2 ,0.00029
800.3 ,0.0003
800.4 ,0.0003
800.5 ,0.0003
800.6 ,0.0003
800.7 ,0.00031
800.8 ,0.00031
800.9 ,0.00031
801.0 ,0.00031
801.1 ,0.00032
801.2 ,0.00032
801.3 ,0.00032
801.4 ,0.00032
801.5 ,0.00033
801.6 ,0.00033
801.7 ,0.00033
801.8 ,0.00034
801.9 ,0.00034
802.0 ,0.00034
802.1 ,0.00035
802.2 ,0.00035
802.3 ,0.00035
802.4 ,0.00036
802.5 ,0.00036
802.6 ,0.00036
802.7 ,0.00037
802.8 ,0.00037
802.9 ,0.00038
803.0 ,0.00038
803.1 ,0.00038
803.2 ,0.00039
803.3 ,0.00039
803.4 ,0.0004
803.5 ,0.0004
803.6 ,0.00041
803.7 ,0.00041
803.8 ,0.00041
803.9 ,0.00042
804.0 ,0.00042
804.1 ,0.00043
804.2 ,0.00043
804.3 ,0.00044
804.4 ,0.00044
804.5 ,0.00045
804.6 ,0.00045
804.7 ,0.00046
804.8 ,0.00047
804.9 ,0.00047
805.0 ,0.00048
805.1 ,0.00048
805.2 ,0.00049
805.3 ,0.00049
805.4 ,0.0005
805.5 ,0.00051
805.6 ,0.00051
805.7 ,0.00052
805.8 ,0.00052
805.9 ,0.00053
806.0 ,0.00053
806.1 ,0.00054
806.2 ,0.00055
806.3 ,0.00055
806.4 ,0.00056
806.5 ,0.00056
806.6 ,0.00057
806.7 ,0.00058
806.8 ,0.00058
806.9 ,0.00059
807.0 ,0.00059
807.1 ,0.0006
807.2 ,0.0006
807.3 ,0.00061
807.4 ,0.00061
807.5 ,0.00062
807.6 ,0.00062
807.7 ,0.00062
807.8 ,0.00063
807.9 ,0.00063
808.0 ,0.00064
808.1 ,0.00064
808.2 ,0.00064
808.3 ,0.00064
808.4 ,0.00065
808.5 ,0.00065
808.6 ,0.00065
808.7 ,0.00065
808.8 ,0.00065
808.9 ,0.00065
809.0 ,0.00065
809.1 ,0.00065
809.2 ,0.00065
809.3 ,0.00065
809.4 ,0.00065
809.5 ,0.00065
809.6 ,0.00065
809.7 ,0.00065
809.8 ,0.00065
809.9 ,0.00064
810.0 ,0.00064
810.1 ,0.00064
810.2 ,0.00063
810.3 ,0.00063
810.4 ,0.00063
810.5 ,0.00062
810.6 ,0.00062
810.7 ,0.00061
810.8 ,0.00061
810.9 ,0.0006
811.0 ,0.0006
811.1 ,0.00059
811.2 ,0.00059
811.3 ,0.00058
811.4 ,0.00057
811.5 ,0.00057
811.6 ,0.00056
811.7 ,0.00056
811.8 ,0.00055
811.9 ,0.00054
812.0 ,0.00054
812.1 ,0.00053
812.2 ,0.00052
812.3 ,0.00052
812.4 ,0.00051
812.5 ,0.0005
812.6 ,0.0005
812.7 ,0.00049
812.8 ,0.00048
812.9 ,0.00048
813.0 ,0.00047
813.1 ,0.00046
813.2 ,0.00046
813.3 ,0.00045
813.4 ,0.00044
813.5 ,0.00044
813.6 ,0.00043
813.7 ,0.00042
813.8 ,0.00042
813.9 ,0.00041
814.0 ,0.0004
814.1 ,0.0004
814.2 ,0.00039
814.3 ,0.00039
814.4 ,0.00038
814.5 ,0.00038
814.6 ,0.00037
814.7 ,0.00036
814.8 ,0.00036
814.9 ,0.00035
815.0 ,0.00035
815.1 ,0.00034
815.2 ,0.00034
815.3 ,0.00033
815.4 ,0.00033
815.5 ,0.00033
815.6 ,0.00032
815.7 ,0.00032
815.8 ,0.00031
815.9 ,0.00031
816.0 ,0.0003
816.1 ,0.0003
816.2 ,0.0003
816.3 ,0.00029
816.4 ,0.00029
816.5 ,0.00028
816.6 ,0.00028
816.7 ,0.00028
816.8 ,0.00027
816.9 ,0.00027
817.0 ,0.00027
817.1 ,0.00026
817.2 ,0.00026
817.3 ,0.00026
817.4 ,0.00025
817.5 ,0.00025
817.6 ,0.00025
817.7 ,0.00025
817.8 ,0.00024
817.9 ,0.00024
818.0 ,0.00024
818.1 ,0.00024
818.2 ,0.00023
818.3 ,0.00023
818.4 ,0.00023
818.5 ,0.00023
818.6 ,0.00022
818.7 ,0.00022
818.8 ,0.00022
818.9 ,0.00022
819.0 ,0.00022
819.1 ,0.00021
819.2 ,0.00021
819.3 ,0.00021
819.4 ,0.00021
819.5 ,0.00021
819.6 ,0.0002
819.7 ,0.0002
819.8 ,0.0002
819.9 ,0.0002
820.0 ,0.0002
820.1 ,0.0002
820.2 ,0.0002
820.3 ,0.00019
820.4 ,0.00019
820.5 ,0.00019
820.6 ,0.00019
820.7 ,0.00019
820.8 ,0.00019
820.9 ,0.00019
821.0 ,0.00019
821.1 ,0.00018
821.2 ,0.00018
821.3 ,0.00018
821.4 ,0.00018
821.5 ,0.00018
821.6 ,0.00018
821.7 ,0.00018
821.8 ,0.00018
821.9 ,0.00018
822.0 ,0.00018
822.1 ,0.00018
822.2 ,0.00018
822.3 ,0.00017
822.4 ,0.00017
822.5 ,0.00017
822.6 ,0.00017
822.7 ,0.00017
822.8 ,0.00017
822.9 ,0.00017
823.0 ,0.00017
823.1 ,0.00017
823.2 ,0.00017
823.3 ,0.00017
823.4 ,0.00017
823.5 ,0.00017
823.6 ,0.00017
823.7 ,0.00017
823.8 ,0.00017
823.9 ,0.00017
824.0 ,0.00017
824.1 ,0.00017
824.2 ,0.00017
824.3 ,0.00017
824.4 ,0.00017
824.5 ,0.00017
824.6 ,0.00017
824.7 ,0.00017
824.8 ,0.00017
824.9 ,0.00017
825.0 ,0.00017
825.1 ,0.00017
825.2 ,0.00017
825.3 ,0.00017
825.4 ,0.00017
825.5 ,0.00017
825.6 ,0.00017
825.7 ,0.00017
825.8 ,0.00017
825.9 ,0.00017
826.0 ,0.00017
826.1 ,0.00017
826.2 ,0.00017
826.3 ,0.00017
826.4 ,0.00017
826.5 ,0.00017
826.6 ,0.00017
826.7 ,0.00017
826.8 ,0.00017
826.9 ,0.00017
827.0 ,0.00017
827.1 ,0.00017
827.2 ,0.00017
827.3 ,0.00018
827.4 ,0.00018
827.5 ,0.00018
827.6 ,0.00018
827.7 ,0.00018
827.8 ,0.00018
827.9 ,0.00018
828.0 ,0.00018
828.1 ,0.00018
828.2 ,0.00018
828.3 ,0.00018
828.4 ,0.00019
828.5 ,0.00019
828.6 ,0.00019
828.7 ,0.00019
828.8 ,0.00019
828.9 ,0.00019
829.0 ,0.00019
829.1 ,0.00019
829.2 ,0.00019
829.3 ,0.0002
829.4 ,0.0002
829.5 ,0.0002
829.6 ,0.0002
829.7 ,0.0002
829.8 ,0.0002
829.9 ,0.00021
830.0 ,0.00021
830.1 ,0.00021
830.2 ,0.00021
830.3 ,0.00021
830.4 ,0.00021
830.5 ,0.00022
830.6 ,0.00022
830.7 ,0.00022
830.8 ,0.00022
830.9 ,0.00022
831.0 ,0.00023
831.1 ,0.00023
831.2 ,0.00023
831.3 ,0.00023
831.4 ,0.00024
831.5 ,0.00024
831.6 ,0.00024
831.7 ,0.00024
831.8 ,0.00025
831.9 ,0.00025
832.0 ,0.00025
832.1 ,0.00025
832.2 ,0.00026
832.3 ,0.00026
832.4 ,0.00026
832.5 ,0.00026
832.6 ,0.00027
832.7 ,0.00027
832.8 ,0.00027
832.9 ,0.00028
833.0 ,0.00028
833.1 ,0.00028
833.2 ,0.00029
833.3 ,0.00029
833.4 ,0.0003
833.5 ,0.0003
833.6 ,0.0003
833.7 ,0.00031
833.8 ,0.00031
833.9 ,0.00031
834.0 ,0.00032
834.1 ,0.00032
834.2 ,0.00033
834.3 ,0.00033
834.4 ,0.00034
834.5 ,0.00034
834.6 ,0.00035
834.7 ,0.00035
834.8 ,0.00035
834.9 ,0.00036
835.0 ,0.00036
835.1 ,0.00037
835.2 ,0.00038
835.3 ,0.00038
835.4 ,0.00039
835.5 ,0.00039
835.6 ,0.0004
835.7 ,0.0004
835.8 ,0.00041
835.9 ,0.00041
836.0 ,0.00042
836.1 ,0.00043
836.2 ,0.00043
836.3 ,0.00044
836.4 ,0.00044
836.5 ,0.00045
836.6 ,0.00046
836.7 ,0.00046
836.8 ,0.00047
836.9 ,0.00048
837.0 ,0.00048
837.1 ,0.00049
837.2 ,0.0005
837.3 ,0.0005
837.4 ,0.00051
837.5 ,0.00052
837.6 ,0.00052
837.7 ,0.00053
837.8 ,0.00054
837.9 ,0.00054
838.0 ,0.00055
838.1 ,0.00056
838.2 ,0.00056
838.3 ,0.00057
838.4 ,0.00058
838.5 ,0.00059
838.6 ,0.00059
838.7 ,0.0006
838.8 ,0.00061
838.9 ,0.00061
839.0 ,0.00062
839.1 ,0.00062
839.2 ,0.00063
839.3 ,0.00064
839.4 ,0.00064
839.5 ,0.00065
839.6 ,0.00065
839.7 ,0.00066
839.8 ,0.00067
839.9 ,0.00067
840.0 ,0.00068
840.1 ,0.00068
840.2 ,0.00068
840.3 ,0.00069
840.4 ,0.00069
840.5 ,0.0007
840.6 ,0.0007
840.7 ,0.0007
840.8 ,0.00071
840.9 ,0.00071
841.0 ,0.00071
841.1 ,0.00071
841.2 ,0.00072
841.3 ,0.00072
841.4 ,0.00072
841.5 ,0.00072
841.6 ,0.00072
841.7 ,0.00072
841.8 ,0.00072
841.9 ,0.00072
842.0 ,0.00072
842.1 ,0.00072
842.2 ,0.00072
842.3 ,0.00072
842.4 ,0.00072
842.5 ,0.00072
842.6 ,0.00072
842.7 ,0.00071
842.8 ,0.00071
842.9 ,0.00071
843.0 ,0.00071
843.1 ,0.0007
843.2 ,0.0007
843.3 ,0.0007
843.4 ,0.0007
843.5 ,0.00069
843.6 ,0.00069
843.7 ,0.00069
843.8 ,0.00068
843.9 ,0.00068
844.0 ,0.00067
844.1 ,0.00067
844.2 ,0.00067
844.3 ,0.00066
844.4 ,0.00066
844.5 ,0.00065
844.6 ,0.00065
844.7 ,0.00064
844.8 ,0.00064
844.9 ,0.00064
845.0 ,0.00063
845.1 ,0.00063
845.2 ,0.00062
845.3 ,0.00062
845.4 ,0.00061
845.5 ,0.00061
845.6 ,0.00061
845.7 ,0.0006
845.8 ,0.0006
845.9 ,0.00059
846.0 ,0.00059
846.1 ,0.00058
846.2 ,0.00058
846.3 ,0.00058
846.4 ,0.00057
846.5 ,0.00057
846.6 ,0.00056
846.7 ,0.00056
846.8 ,0.00055
846.9 ,0.00055
847.0 ,0.00055
847.1 ,0.00054
847.2 ,0.00054
847.3 ,0.00054
847.4 ,0.00053
847.5 ,0.00053
847.6 ,0.00053
847.7 ,0.00052
847.8 ,0.00052
847.9 ,0.00052
848.0 ,0.00051
848.1 ,0.00051
848.2 ,0.00051
848.3 ,0.0005
848.4 ,0.0005
848.5 ,0.0005
848.6 ,0.00049
848.7 ,0.00049
848.8 ,0.00049
848.9 ,0.00049
849.0 ,0.00048
849.1 ,0.00048
849.2 ,0.00048
849.3 ,0.00047
849.4 ,0.00047
849.5 ,0.00047
849.6 ,0.00047
849.7 ,0.00047
849.8 ,0.00046
849.9 ,0.00046
850.0 ,0.00046
850.1 ,0.00046
850.2 ,0.00045
850.3 ,0.00045
850.4 ,0.00045
850.5 ,0.00045
850.6 ,0.00045
850.7 ,0.00044
850.8 ,0.00044
850.9 ,0.00044
851.0 ,0.00044
851.1 ,0.00044
851.2 ,0.00044
851.3 ,0.00043
851.4 ,0.00043
851.5 ,0.00043
851.6 ,0.00043
851.7 ,0.00043
851.8 ,0.00043
851.9 ,0.00043
852.0 ,0.00042
852.1 ,0.00042
852.2 ,0.00042
852.3 ,0.00042
852.4 ,0.00042
852.5 ,0.00042
852.6 ,0.00042
852.7 ,0.00042
852.8 ,0.00042
852.9 ,0.00042
853.0 ,0.00041
853.1 ,0.00041
853.2 ,0.00041
853.3 ,0.00041
853.4 ,0.00041
853.5 ,0.00041
853.6 ,0.00041
853.7 ,0.00041
853.8 ,0.00041
853.9 ,0.00041
854.0 ,0.00041
854.1 ,0.00041
854.2 ,0.00041
854.3 ,0.00041
854.4 ,0.00041
854.5 ,0.00041
854.6 ,0.00041
854.7 ,0.00041
854.8 ,0.00041
854.9 ,0.00041
855.0 ,0.00041
855.1 ,0.00041
855.2 ,0.00041
855.3 ,0.00041
855.4 ,0.00041
855.5 ,0.00041
855.6 ,0.00041
855.7 ,0.00041
855.8 ,0.00041
855.9 ,0.00041
856.0 ,0.00041
856.1 ,0.00042
856.2 ,0.00042
856.3 ,0.00042
856.4 ,0.00042
856.5 ,0.00042
856.6 ,0.00042
856.7 ,0.00042
856.8 ,0.00042
856.9 ,0.00043
857.0 ,0.00043
857.1 ,0.00043
857.2 ,0.00043
857.3 ,0.00043
857.4 ,0.00043
857.5 ,0.00044
857.6 ,0.00044
857.7 ,0.00044
857.8 ,0.00044
857.9 ,0.00044
858.0 ,0.00045
858.1 ,0.00045
858.2 ,0.00045
858.3 ,0.00045
858.4 ,0.00046
858.5 ,0.00046
858.6 ,0.00046
858.7 ,0.00047
858.8 ,0.00047
858.9 ,0.00047
859.0 ,0.00047
859.1 ,0.00048
859.2 ,0.00048
859.3 ,0.00048
859.4 ,0.00049
859.5 ,0.00049
859.6 ,0.0005
859.7 ,0.0005
859.8 ,0.0005
859.9 ,0.00051
860.0 ,0.00051
860.1 ,0.00052
860.2 ,0.00052
860.3 ,0.00052
860.4 ,0.00053
860.5 ,0.00053
860.6 ,0.00054
860.7 ,0.00054
860.8 ,0.00055
860.9 ,0.00055
861.0 ,0.00056
861.1 ,0.00057
861.2 ,0.00057
861.3 ,0.00058
861.4 ,0.00058
861.5 ,0.00059
861.6 ,0.00059
861.7 ,0.0006
861.8 ,0.00061
861.9 ,0.00061
862.0 ,0.00062
862.1 ,0.00063
862.2 ,0.00063
862.3 ,0.00064
862.4 ,0.00065
862.5 ,0.00065
862.6 ,0.00066
862.7 ,0.00067
862.8 ,0.00068
862.9 ,0.00069
863.0 ,0.00069
863.1 ,0.0007
863.2 ,0.00071
863.3 ,0.00072
863.4 ,0.00073
863.5 ,0.00074
863.6 ,0.00075
863.7 ,0.00076
863.8 ,0.00077
863.9 ,0.00078
864.0 ,0.00079
864.1 ,0.0008
864.2 ,0.00081
864.3 ,0.00082
864.4 ,0.00083
864.5 ,0.00084
864.6 ,0.00085
864.7 ,0.00086
864.8 ,0.00087
864.9 ,0.00089
865.0 ,0.0009
865.1 ,0.00091
865.2 ,0.00092
865.3 ,0.00094
865.4 ,0.00095
865.5 ,0.00096
865.6 ,0.00098
865.7 ,0.00099
865.8 ,0.001
865.9 ,0.00102
866.0 ,0.00103
866.1 ,0.00105
866.2 ,0.00106
866.3 ,0.00108
866.4 ,0.00109
866.5 ,0.00111
866.6 ,0.00113
866.7 ,0.00114
866.8 ,0.00116
866.9 ,0.00118
867.0 ,0.0012
867.1 ,0.00121
867.2 ,0.00123
867.3 ,0.00125
867.4 ,0.00127
867.5 ,0.00129
867.6 ,0.00131
867.7 ,0.00133
867.8 ,0.00135
867.9 ,0.00137
868.0 ,0.00138
868.1 ,0.0014
868.2 ,0.00142
868.3 ,0.00144
868.4 ,0.00146
868.5 ,0.00148
868.6 ,0.0015
868.7 ,0.00152
868.8 ,0.00154
868.9 ,0.00156
869.0 ,0.00158
869.1 ,0.0016
869.2 ,0.00161
869.3 ,0.00163
869.4 ,0.00165
869.5 ,0.00166
869.6 ,0.00168
869.7 ,0.00169
869.8 ,0.00171
869.9 ,0.00172
870.0 ,0.00173
870.1 ,0.00174
870.2 ,0.00175
870.3 ,0.00176
870.4 ,0.00177
870.5 ,0.00178
870.6 ,0.00178
870.7 ,0.00179
870.8 ,0.00179
870.9 ,0.00179
871.0 ,0.00179
871.1 ,0.00179
871.2 ,0.00179
871.3 ,0.00178
871.4 ,0.00178
871.5 ,0.00177
871.6 ,0.00176
871.7 ,0.00176
871.8 ,0.00175
871.9 ,0.00174
872.0 ,0.00172
872.1 ,0.00171
872.2 ,0.0017
872.3 ,0.00168
872.4 ,0.00167
872.5 ,0.00165
872.6 ,0.00163
872.7 ,0.00162
872.8 ,0.0016
872.9 ,0.00158
873.0 ,0.00156
873.1 ,0.00154
873.2 ,0.00152
873.3 ,0.0015
873.4 ,0.00148
873.5 ,0.00146
873.6 ,0.00144
873.7 ,0.00142
873.8 ,0.0014
873.9 ,0.00138
874.0 ,0.00137
874.1 ,0.00135
874.2 ,0.00133
874.3 ,0.00131
874.4 ,0.00129
874.5 ,0.00127
874.6 ,0.00126
874.7 ,0.00124
874.8 ,0.00122
874.9 ,0.00121
875.0 ,0.00119
875.1 ,0.00118
875.2 ,0.00116
875.3 ,0.00115
875.4 ,0.00113
875.5 ,0.00112
875.6 ,0.0011
875.7 ,0.00109
875.8 ,0.00108
875.9 ,0.00107
876.0 ,0.00106
876.1 ,0.00105
876.2 ,0.00104
876.3 ,0.00103
876.4 ,0.00102
876.5 ,0.00101
876.6 ,0.001
876.7 ,0.00099
876.8 ,0.00098
876.9 ,0.00098
877.0 ,0.00097
877.1 ,0.00096
877.2 ,0.00096
877.3 ,0.00095
877.4 ,0.00095
877.5 ,0.00094
877.6 ,0.00094
877.7 ,0.00093
877.8 ,0.00093
877.9 ,0.00093
878.0 ,0.00092
878.1 ,0.00092
878.2 ,0.00092
878.3 ,0.00092
878.4 ,0.00092
878.5 ,0.00091
878.6 ,0.00091
878.7 ,0.00091
878.8 ,0.00091
878.9 ,0.00091
879.0 ,0.00092
879.1 ,0.00092
879.2 ,0.00092
879.3 ,0.00092
879.4 ,0.00092
879.5 ,0.00093
879.6 ,0.00093
879.7 ,0.00093
879.8 ,0.00094
879.9 ,0.00094
880.0 ,0.00095
880.1 ,0.00095
880.2 ,0.00096
880.3 ,0.00096
880.4 ,0.00097
880.5 ,0.00098
880.6 ,0.00098
880.7 ,0.00099
880.8 ,0.001
880.9 ,0.001
881.0 ,0.00101
881.1 ,0.00102
881.2 ,0.00103
881.3 ,0.00104
881.4 ,0.00105
881.5 ,0.00106
881.6 ,0.00107
881.7 ,0.00108
881.8 ,0.00109
881.9 ,0.0011
882.0 ,0.00111
882.1 ,0.00112
882.2 ,0.00113
882.3 ,0.00114
882.4 ,0.00115
882.5 ,0.00116
882.6 ,0.00117
882.7 ,0.00119
882.8 ,0.0012
882.9 ,0.00121
883.0 ,0.00122
883.1 ,0.00123
883.2 ,0.00124
883.3 ,0.00125
883.4 ,0.00126
883.5 ,0.00127
883.6 ,0.00128
883.7 ,0.00129
883.8 ,0.0013
883.9 ,0.00131
884.0 ,0.00131
884.1 ,0.00132
884.2 ,0.00132
884.3 ,0.00133
884.4 ,0.00133
884.5 ,0.00133
884.6 ,0.00133
884.7 ,0.00134
884.8 ,0.00134
884.9 ,0.00133
885.0 ,0.00133
885.1 ,0.00133
885.2 ,0.00133
885.3 ,0.00133
885.4 ,0.00133
885.5 ,0.00132
885.6 ,0.00132
885.7 ,0.00131
885.8 ,0.00131
885.9 ,0.0013
886.0 ,0.00129
886.1 ,0.00128
886.2 ,0.00127
886.3 ,0.00126
886.4 ,0.00125
886.5 ,0.00124
886.6 ,0.00123
886.7 ,0.00122
886.8 ,0.0012
886.9 ,0.00119
887.0 ,0.00118
887.1 ,0.00117
887.2 ,0.00115
887.3 ,0.00114
887.4 ,0.00112
887.5 ,0.00111
887.6 ,0.00109
887.7 ,0.00108
887.8 ,0.00107
887.9 ,0.00105
888.0 ,0.00104
888.1 ,0.00102
888.2 ,0.00101
888.3 ,0.00099
888.4 ,0.00098
888.5 ,0.00097
888.6 ,0.00095
888.7 ,0.00094
888.8 ,0.00092
888.9 ,0.00091
889.0 ,0.0009
889.1 ,0.00088
889.2 ,0.00087
889.3 ,0.00086
889.4 ,0.00085
889.5 ,0.00083
889.6 ,0.00082
889.7 ,0.00081
889.8 ,0.0008
889.9 ,0.00079
890.0 ,0.00078
890.1 ,0.00076
890.2 ,0.00075
890.3 ,0.00074
890.4 ,0.00073
890.5 ,0.00072
890.6 ,0.00071
890.7 ,0.0007
890.8 ,0.00069
890.9 ,0.00068
891.0 ,0.00067
891.1 ,0.00066
891.2 ,0.00066
891.3 ,0.00065
891.4 ,0.00064
891.5 ,0.00063
891.6 ,0.00062
891.7 ,0.00061
891.8 ,0.00061
891.9 ,0.0006
892.0 ,0.00059
892.1 ,0.00058
892.2 ,0.00058
892.3 ,0.00057
892.4 ,0.00056
892.5 ,0.00055
892.6 ,0.00055
892.7 ,0.00054
892.8 ,0.00053
892.9 ,0.00053
893.0 ,0.00052
893.1 ,0.00051
893.2 ,0.00051
893.3 ,0.0005
893.4 ,0.00049
893.5 ,0.00049
893.6 ,0.00048
893.7 ,0.00048
893.8 ,0.00047
893.9 ,0.00047
894.0 ,0.00046
894.1 ,0.00045
894.2 ,0.00045
894.3 ,0.00044
894.4 ,0.00044
894.5 ,0.00043
894.6 ,0.00043
894.7 ,0.00042
894.8 ,0.00042
894.9 ,0.00041
895.0 ,0.00041
895.1 ,0.0004
895.2 ,0.0004
895.3 ,0.00039
895.4 ,0.00039
895.5 ,0.00038
895.6 ,0.00038
895.7 ,0.00038
895.8 ,0.00037
895.9 ,0.00037
896.0 ,0.00036
896.1 ,0.00036
896.2 ,0.00036
896.3 ,0.00035
896.4 ,0.00035
896.5 ,0.00035
896.6 ,0.00034
896.7 ,0.00034
896.8 ,0.00033
896.9 ,0.00033
897.0 ,0.00033
897.1 ,0.00032
897.2 ,0.00032
897.3 ,0.00032
897.4 ,0.00032
897.5 ,0.00031
897.6 ,0.00031
897.7 ,0.00031
897.8 ,0.0003
897.9 ,0.0003
898.0 ,0.0003
898.1 ,0.0003
898.2 ,0.0003
898.3 ,0.00029
898.4 ,0.00029
898.5 ,0.00029
898.6 ,0.00029
898.7 ,0.00029
898.8 ,0.00028
898.9 ,0.00028
899.0 ,0.00028
899.1 ,0.00028
899.2 ,0.00028
899.3 ,0.00028
899.4 ,0.00027
899.5 ,0.00027
899.6 ,0.00027
899.7 ,0.00027
899.8 ,0.00027
899.9 ,0.00027
900.0 ,0.00027
900.1 ,0.00027
900.2 ,0.00027
900.3 ,0.00027
900.4 ,0.00026
900.5 ,0.00026
900.6 ,0.00026
900.7 ,0.00026
900.8 ,0.00026
900.9 ,0.00026
901.0 ,0.00026
901.1 ,0.00026
901.2 ,0.00026
901.3 ,0.00026
901.4 ,0.00026
901.5 ,0.00026
901.6 ,0.00026
901.7 ,0.00027
901.8 ,0.00027
901.9 ,0.00027
902.0 ,0.00027
902.1 ,0.00027
902.2 ,0.00027
902.3 ,0.00027
902.4 ,0.00027
902.5 ,0.00027
902.6 ,0.00028
902.7 ,0.00028
902.8 ,0.00028
902.9 ,0.00028
903.0 ,0.00028
903.1 ,0.00029
903.2 ,0.00029
903.3 ,0.00029
903.4 ,0.00029
903.5 ,0.0003
903.6 ,0.0003
903.7 ,0.0003
903.8 ,0.0003
903.9 ,0.00031
904.0 ,0.00031
904.1 ,0.00032
904.2 ,0.00032
904.3 ,0.00032
904.4 ,0.00033
904.5 ,0.00033
904.6 ,0.00034
904.7 ,0.00034
904.8 ,0.00035
904.9 ,0.00035
905.0 ,0.00036
905.1 ,0.00036
905.2 ,0.00037
905.3 ,0.00037
905.4 ,0.00038
905.5 ,0.00039
905.6 ,0.00039
905.7 ,0.0004
905.8 ,0.00041
905.9 ,0.00041
906.0 ,0.00042
906.1 ,0.00043
906.2 ,0.00044
906.3 ,0.00044
906.4 ,0.00045
906.5 ,0.00046
906.6 ,0.00047
906.7 ,0.00048
906.8 ,0.00049
906.9 ,0.0005
907.0 ,0.00051
907.1 ,0.00052
907.2 ,0.00053
907.3 ,0.00054
907.4 ,0.00055
907.5 ,0.00056
907.6 ,0.00057
907.7 ,0.00059
907.8 ,0.0006
907.9 ,0.00061
908.0 ,0.00062
908.1 ,0.00063
908.2 ,0.00065
908.3 ,0.00066
908.4 ,0.00067
908.5 ,0.00068
908.6 ,0.00069
908.7 ,0.00071
908.8 ,0.00072
908.9 ,0.00073
909.0 ,0.00074
909.1 ,0.00075
909.2 ,0.00076
909.3 ,0.00077
909.4 ,0.00078
909.5 ,0.00079
909.6 ,0.0008
909.7 ,0.00081
909.8 ,0.00081
909.9 ,0.00082
910.0 ,0.00083
910.1 ,0.00083
910.2 ,0.00084
910.3 ,0.00084
910.4 ,0.00084
910.5 ,0.00084
910.6 ,0.00085
910.7 ,0.00085
910.8 ,0.00085
910.9 ,0.00085
911.0 ,0.00085
911.1 ,0.00084
911.2 ,0.00084
911.3 ,0.00084
911.4 ,0.00084
911.5 ,0.00083
911.6 ,0.00083
911.7 ,0.00082
911.8 ,0.00082
911.9 ,0.00081
912.0 ,0.00081
912.1 ,0.0008
912.2 ,0.0008
912.3 ,0.00079
912.4 ,0.00078
912.5 ,0.00078
912.6 ,0.00077
912.7 ,0.00076
912.8 ,0.00076
912.9 ,0.00075
913.0 ,0.00074
913.1 ,0.00074
913.2 ,0.00073
913.3 ,0.00072
913.4 ,0.00072
913.5 ,0.00071
913.6 ,0.0007
913.7 ,0.0007
913.8 ,0.00069
913.9 ,0.00069
914.0 ,0.00068
914.1 ,0.00068
914.2 ,0.00067
914.3 ,0.00067
914.4 ,0.00066
914.5 ,0.00066
914.6 ,0.00066
914.7 ,0.00065
914.8 ,0.00065
914.9 ,0.00065
915.0 ,0.00065
915.1 ,0.00064
915.2 ,0.00064
915.3 ,0.00064
915.4 ,0.00064
915.5 ,0.00064
915.6 ,0.00064
915.7 ,0.00064
915.8 ,0.00064
915.9 ,0.00064
916.0 ,0.00064
916.1 ,0.00064
916.2 ,0.00064
916.3 ,0.00064
916.4 ,0.00064
916.5 ,0.00065
916.6 ,0.00065
916.7 ,0.00065
916.8 ,0.00065
916.9 ,0.00066
917.0 ,0.00066
917.1 ,0.00067
917.2 ,0.00067
917.3 ,0.00068
917.4 ,0.00068
917.5 ,0.00069
917.6 ,0.0007
917.7 ,0.0007
917.8 ,0.00071
917.9 ,0.00072
918.0 ,0.00073
918.1 ,0.00074
918.2 ,0.00075
918.3 ,0.00076
918.4 ,0.00077
918.5 ,0.00078
918.6 ,0.00079
918.7 ,0.00081
918.8 ,0.00082
918.9 ,0.00083
919.0 ,0.00085
919.1 ,0.00086
919.2 ,0.00088
919.3 ,0.0009
919.4 ,0.00092
919.5 ,0.00094
919.6 ,0.00096
919.7 ,0.00098
919.8 ,0.001
919.9 ,0.00102
920.0 ,0.00104
920.1 ,0.00107
920.2 ,0.00109
920.3 ,0.00112
920.4 ,0.00115
920.5 ,0.00117
920.6 ,0.0012
920.7 ,0.00123
920.8 ,0.00127
920.9 ,0.0013
921.0 ,0.00133
921.1 ,0.00137
921.2 ,0.0014
921.3 ,0.00144
921.4 ,0.00147
921.5 ,0.00151
921.6 ,0.00155
921.7 ,0.00159
921.8 ,0.00163
921.9 ,0.00167
922.0 ,0.00171
922.1 ,0.00175
922.2 ,0.00179
922.3 ,0.00183
922.4 ,0.00187
922.5 ,0.00191
922.6 ,0.00195
922.7 ,0.00198
922.8 ,0.00202
922.9 ,0.00205
923.0 ,0.00208
923.1 ,0.00211
923.2 ,0.00214
923.3 ,0.00217
923.4 ,0.00219
923.5 ,0.00221
923.6 ,0.00223
923.7 ,0.00224
923.8 ,0.00225
923.9 ,0.00226
924.0 ,0.00227
924.1 ,0.00227
924.2 ,0.00227
924.3 ,0.00227
924.4 ,0.00226
924.5 ,0.00226
924.6 ,0.00224
924.7 ,0.00223
924.8 ,0.00222
924.9 ,0.0022
925.0 ,0.00218
925.1 ,0.00216
925.2 ,0.00214
925.3 ,0.00212
925.4 ,0.0021
925.5 ,0.00208
925.6 ,0.00205
925.7 ,0.00203
925.8 ,0.002
925.9 ,0.00198
926.0 ,0.00196
926.1 ,0.00193
926.2 ,0.00191
926.3 ,0.00188
926.4 ,0.00186
926.5 ,0.00184
926.6 ,0.00182
926.7 ,0.0018
926.8 ,0.00178
926.9 ,0.00176
927.0 ,0.00174
927.1 ,0.00172
927.2 ,0.0017
927.3 ,0.00169
927.4 ,0.00167
927.5 ,0.00166
927.6 ,0.00165
927.7 ,0.00164
927.8 ,0.00163
927.9 ,0.00162
928.0 ,0.00161
928.1 ,0.0016
928.2 ,0.00159
928.3 ,0.00159
928.4 ,0.00158
928.5 ,0.00158
928.6 ,0.00158
928.7 ,0.00158
928.8 ,0.00158
928.9 ,0.00158
929.0 ,0.00158
929.1 ,0.00158
929.2 ,0.00159
929.3 ,0.00159
929.4 ,0.0016
929.5 ,0.00161
929.6 ,0.00162
929.7 ,0.00163
929.8 ,0.00164
929.9 ,0.00165
930.0 ,0.00166
930.1 ,0.00168
930.2 ,0.0017
930.3 ,0.00171
930.4 ,0.00173
930.5 ,0.00175
930.6 ,0.00177
930.7 ,0.0018
930.8 ,0.00182
930.9 ,0.00185
931.0 ,0.00187
931.1 ,0.0019
931.2 ,0.00193
931.3 ,0.00196
931.4 ,0.002
931.5 ,0.00203
931.6 ,0.00206
931.7 ,0.0021
931.8 ,0.00214
931.9 ,0.00217
932.0 ,0.00221
932.1 ,0.00225
932.2 ,0.00229
932.3 ,0.00233
932.4 ,0.00237
932.5 ,0.00241
932.6 ,0.00245
932.7 ,0.00248
932.8 ,0.00252
932.9 ,0.00256
933.0 ,0.00259
933.1 ,0.00262
933.2 ,0.00265
933.3 ,0.00267
933.4 ,0.00269
933.5 ,0.00271
933.6 ,0.00272
933.7 ,0.00273
933.8 ,0.00274
933.9 ,0.00274
934.0 ,0.00273
934.1 ,0.00272
934.2 ,0.0027
934.3 ,0.00268
934.4 ,0.00265
934.5 ,0.00262
934.6 ,0.00259
934.7 ,0.00255
934.8 ,0.0025
934.9 ,0.00245
935.0 ,0.0024
935.1 ,0.00235
935.2 ,0.00229
935.3 ,0.00224
935.4 ,0.00218
935.5 ,0.00212
935.6 ,0.00205
935.7 ,0.00199
935.8 ,0.00193
935.9 ,0.00187
936.0 ,0.00181
936.1 ,0.00175
936.2 ,0.0017
936.3 ,0.00164
936.4 ,0.00158
936.5 ,0.00153
936.6 ,0.00148
936.7 ,0.00143
936.8 ,0.00138
936.9 ,0.00133
937.0 ,0.00129
937.1 ,0.00125
937.2 ,0.0012
937.3 ,0.00116
937.4 ,0.00113
937.5 ,0.00109
937.6 ,0.00106
937.7 ,0.00102
937.8 ,0.00099
937.9 ,0.00096
938.0 ,0.00093
938.1 ,0.0009
938.2 ,0.00088
938.3 ,0.00085
938.4 ,0.00083
938.5 ,0.00081
938.6 ,0.00078
938.7 ,0.00076
938.8 ,0.00074
938.9 ,0.00072
939.0 ,0.00071
939.1 ,0.00069
939.2 ,0.00067
939.3 ,0.00066
939.4 ,0.00064
939.5 ,0.00063
939.6 ,0.00062
939.7 ,0.0006
939.8 ,0.00059
939.9 ,0.00058
940.0 ,0.00057
940.1 ,0.00056
940.2 ,0.00055
940.3 ,0.00054
940.4 ,0.00053
940.5 ,0.00052
940.6 ,0.00051
940.7 ,0.00051
940.8 ,0.0005
940.9 ,0.00049
941.0 ,0.00048
941.1 ,0.00048
941.2 ,0.00047
941.3 ,0.00047
941.4 ,0.00046
941.5 ,0.00046
941.6 ,0.00045
941.7 ,0.00045
941.8 ,0.00044
941.9 ,0.00044
942.0 ,0.00044
942.1 ,0.00043
942.2 ,0.00043
942.3 ,0.00043
942.4 ,0.00043
942.5 ,0.00042
942.6 ,0.00042
942.7 ,0.00042
942.8 ,0.00042
942.9 ,0.00042
943.0 ,0.00041
943.1 ,0.00041
943.2 ,0.00041
943.3 ,0.00041
943.4 ,0.00041
943.5 ,0.00041
943.6 ,0.00041
943.7 ,0.00041
943.8 ,0.00041
943.9 ,0.00041
944.0 ,0.00041
944.1 ,0.00042
944.2 ,0.00042
944.3 ,0.00042
944.4 ,0.00042
944.5 ,0.00042
944.6 ,0.00042
944.7 ,0.00042
944.8 ,0.00043
944.9 ,0.00043
945.0 ,0.00043
945.1 ,0.00044
945.2 ,0.00044
945.3 ,0.00044
945.4 ,0.00045
945.5 ,0.00045
945.6 ,0.00045
945.7 ,0.00046
945.8 ,0.00046
945.9 ,0.00047
946.0 ,0.00047
946.1 ,0.00048
946.2 ,0.00048
946.3 ,0.00049
946.4 ,0.00049
946.5 ,0.0005
946.6 ,0.00051
946.7 ,0.00051
946.8 ,0.00052
946.9 ,0.00053
947.0 ,0.00053
947.1 ,0.00054
947.2 ,0.00055
947.3 ,0.00056
947.4 ,0.00056
947.5 ,0.00057
947.6 ,0.00058
947.7 ,0.00059
947.8 ,0.0006
947.9 ,0.00061
948.0 ,0.00062
948.1 ,0.00063
948.2 ,0.00064
948.3 ,0.00065
948.4 ,0.00066
948.5 ,0.00067
948.6 ,0.00068
948.7 ,0.00069
948.8 ,0.00071
948.9 ,0.00072
949.0 ,0.00073
949.1 ,0.00074
949.2 ,0.00075
949.3 ,0.00077
949.4 ,0.00078
949.5 ,0.00079
949.6 ,0.00081
949.7 ,0.00082
949.8 ,0.00083
949.9 ,0.00084
950.0 ,0.00086
950.1 ,0.00087
950.2 ,0.00088
950.3 ,0.00089
950.4 ,0.00091
950.5 ,0.00092
950.6 ,0.00093
950.7 ,0.00094
950.8 ,0.00095
950.9 ,0.00096
951.0 ,0.00098
951.1 ,0.00099
951.2 ,0.001
951.3 ,0.00101
951.4 ,0.00102
951.5 ,0.00102
951.6 ,0.00103
951.7 ,0.00104
951.8 ,0.00105
951.9 ,0.00106
952.0 ,0.00106
952.1 ,0.00107
952.2 ,0.00107
952.3 ,0.00108
952.4 ,0.00108
952.5 ,0.00109
952.6 ,0.00109
952.7 ,0.0011
952.8 ,0.0011
952.9 ,0.0011
953.0 ,0.0011
953.1 ,0.00111
953.2 ,0.00111
953.3 ,0.00111
953.4 ,0.00111
953.5 ,0.00111
953.6 ,0.00111
953.7 ,0.00111
953.8 ,0.00111
953.9 ,0.00111
954.0 ,0.00111
954.1 ,0.00111
954.2 ,0.00111
954.3 ,0.00111
954.4 ,0.0011
954.5 ,0.0011
954.6 ,0.0011
954.7 ,0.0011
954.8 ,0.0011
954.9 ,0.0011
955.0 ,0.0011
955.1 ,0.0011
955.2 ,0.0011
955.3 ,0.0011
955.4 ,0.0011
955.5 ,0.0011
955.6 ,0.0011
955.7 ,0.0011
955.8 ,0.0011
955.9 ,0.0011
956.0 ,0.00111
956.1 ,0.00111
956.2 ,0.00111
956.3 ,0.00111
956.4 ,0.00112
956.5 ,0.00112
956.6 ,0.00112
956.7 ,0.00113
956.8 ,0.00113
956.9 ,0.00114
957.0 ,0.00114
957.1 ,0.00115
957.2 ,0.00116
957.3 ,0.00116
957.4 ,0.00117
957.5 ,0.00118
957.6 ,0.00119
957.7 ,0.0012
957.8 ,0.00121
957.9 ,0.00122
958.0 ,0.00123
958.1 ,0.00124
958.2 ,0.00126
958.3 ,0.00127
958.4 ,0.00128
958.5 ,0.0013
958.6 ,0.00131
958.7 ,0.00133
958.8 ,0.00135
958.9 ,0.00136
959.0 ,0.00138
959.1 ,0.0014
959.2 ,0.00142
959.3 ,0.00144
959.4 ,0.00146
959.5 ,0.00148
959.6 ,0.00151
959.7 ,0.00153
959.8 ,0.00156
959.9 ,0.00158
960.0 ,0.00161
960.1 ,0.00164
960.2 ,0.00166
960.3 ,0.00169
960.4 ,0.00172
960.5 ,0.00175
960.6 ,0.00178
960.7 ,0.00182
960.8 ,0.00185
960.9 ,0.00188
961.0 ,0.00191
961.1 ,0.00195
961.2 ,0.00198
961.3 ,0.00201
961.4 ,0.00205
961.5 ,0.00208
961.6 ,0.00212
961.7 ,0.00215
961.8 ,0.00218
961.9 ,0.00221
962.0 ,0.00224
962.1 ,0.00227
962.2 ,0.0023
962.3 ,0.00233
962.4 ,0.00235
962.5 ,0.00238
962.6 ,0.0024
962.7 ,0.00242
962.8 ,0.00244
962.9 ,0.00245
963.0 ,0.00247
963.1 ,0.00248
963.2 ,0.00248
963.3 ,0.00249
963.4 ,0.00249
963.5 ,0.00249
963.6 ,0.00249
963.7 ,0.00248
963.8 ,0.00247
963.9 ,0.00246
964.0 ,0.00244
964.1 ,0.00243
964.2 ,0.00241
964.3 ,0.00239
964.4 ,0.00236
964.5 ,0.00234
964.6 ,0.00231
964.7 ,0.00228
964.8 ,0.00226
964.9 ,0.00222
965.0 ,0.00219
965.1 ,0.00216
965.2 ,0.00213
965.3 ,0.0021
965.4 ,0.00206
965.5 ,0.00203
965.6 ,0.00199
965.7 ,0.00196
965.8 ,0.00193
965.9 ,0.00189
966.0 ,0.00186
966.1 ,0.00183
966.2 ,0.0018
966.3 ,0.00177
966.4 ,0.00174
966.5 ,0.00171
966.6 ,0.00168
966.7 ,0.00165
966.8 ,0.00162
966.9 ,0.00159
967.0 ,0.00157
967.1 ,0.00154
967.2 ,0.00152
967.3 ,0.0015
967.4 ,0.00147
967.5 ,0.00145
967.6 ,0.00143
967.7 ,0.00141
967.8 ,0.00139
967.9 ,0.00137
968.0 ,0.00136
968.1 ,0.00134
968.2 ,0.00132
968.3 ,0.00131
968.4 ,0.00129
968.5 ,0.00128
968.6 ,0.00127
968.7 ,0.00125
968.8 ,0.00124
968.9 ,0.00123
969.0 ,0.00122
969.1 ,0.00121
969.2 ,0.0012
969.3 ,0.00119
969.4 ,0.00119
969.5 ,0.00118
969.6 ,0.00117
969.7 ,0.00117
969.8 ,0.00116
969.9 ,0.00116
970.0 ,0.00115
970.1 ,0.00115
970.2 ,0.00114
970.3 ,0.00114
970.4 ,0.00114
970.5 ,0.00113
970.6 ,0.00113
970.7 ,0.00113
970.8 ,0.00113
970.9 ,0.00113
971.0 ,0.00113
971.1 ,0.00113
971.2 ,0.00113
971.3 ,0.00113
971.4 ,0.00113
971.5 ,0.00113
971.6 ,0.00113
971.7 ,0.00113
971.8 ,0.00114
971.9 ,0.00114
972.0 ,0.00114
972.1 ,0.00114
972.2 ,0.00114
972.3 ,0.00115
972.4 ,0.00115
972.5 ,0.00115
972.6 ,0.00115
972.7 ,0.00115
972.8 ,0.00115
972.9 ,0.00116
973.0 ,0.00116
973.1 ,0.00116
973.2 ,0.00116
973.3 ,0.00116
973.4 ,0.00116
973.5 ,0.00115
973.6 ,0.00115
973.7 ,0.00115
973.8 ,0.00115
973.9 ,0.00114
974.0 ,0.00114
974.1 ,0.00114
974.2 ,0.00113
974.3 ,0.00112
974.4 ,0.00112
974.5 ,0.00111
974.6 ,0.0011
974.7 ,0.00109
974.8 ,0.00108
974.9 ,0.00107
975.0 ,0.00106
975.1 ,0.00105
975.2 ,0.00103
975.3 ,0.00102
975.4 ,0.001
975.5 ,0.00099
975.6 ,0.00097
975.7 ,0.00096
975.8 ,0.00094
975.9 ,0.00093
976.0 ,0.00091
976.1 ,0.00089
976.2 ,0.00087
976.3 ,0.00086
976.4 ,0.00084
976.5 ,0.00082
976.6 ,0.0008
976.7 ,0.00078
976.8 ,0.00077
976.9 ,0.00075
977.0 ,0.00073
977.1 ,0.00071
977.2 ,0.0007
977.3 ,0.00068
977.4 ,0.00066
977.5 ,0.00064
977.6 ,0.00063
977.7 ,0.00061
977.8 ,0.0006
977.9 ,0.00058
978.0 ,0.00057
978.1 ,0.00055
978.2 ,0.00054
978.3 ,0.00052
978.4 ,0.00051
978.5 ,0.0005
978.6 ,0.00048
978.7 ,0.00047
978.8 ,0.00046
978.9 ,0.00045
979.0 ,0.00044
979.1 ,0.00043
979.2 ,0.00041
979.3 ,0.0004
979.4 ,0.00039
979.5 ,0.00038
979.6 ,0.00038
979.7 ,0.00037
979.8 ,0.00036
979.9 ,0.00035
980.0 ,0.00034
980.1 ,0.00033
980.2 ,0.00033
980.3 ,0.00032
980.4 ,0.00031
980.5 ,0.00031
980.6 ,0.0003
980.7 ,0.00029
980.8 ,0.00029
980.9 ,0.00028
981.0 ,0.00027
981.1 ,0.00027
981.2 ,0.00026
981.3 ,0.00026
981.4 ,0.00025
981.5 ,0.00025
981.6 ,0.00024
981.7 ,0.00024
981.8 ,0.00024
981.9 ,0.00023
982.0 ,0.00023
982.1 ,0.00022
982.2 ,0.00022
982.3 ,0.00022
982.4 ,0.00021
982.5 ,0.00021
982.6 ,0.00021
982.7 ,0.0002
982.8 ,0.0002
982.9 ,0.0002
983.0 ,0.00019
983.1 ,0.00019
983.2 ,0.00019
983.3 ,0.00019
983.4 ,0.00018
983.5 ,0.00018
983.6 ,0.00018
983.7 ,0.00018
983.8 ,0.00018
983.9 ,0.00017
984.0 ,0.00017
984.1 ,0.00017
984.2 ,0.00017
984.3 ,0.00017
984.4 ,0.00016
984.5 ,0.00016
984.6 ,0.00016
984.7 ,0.00016
984.8 ,0.00016
984.9 ,0.00016
985.0 ,0.00016
985.1 ,0.00015
985.2 ,0.00015
985.3 ,0.00015
985.4 ,0.00015
985.5 ,0.00015
985.6 ,0.00015
985.7 ,0.00015
985.8 ,0.00015
985.9 ,0.00015
986.0 ,0.00014
986.1 ,0.00014
986.2 ,0.00014
986.3 ,0.00014
986.4 ,0.00014
986.5 ,0.00014
986.6 ,0.00014
986.7 ,0.00014
986.8 ,0.00014
986.9 ,0.00014
987.0 ,0.00014
987.1 ,0.00014
987.2 ,0.00014
987.3 ,0.00014
987.4 ,0.00014
987.5 ,0.00013
987.6 ,0.00013
987.7 ,0.00013
987.8 ,0.00013
987.9 ,0.00013
988.0 ,0.00013
988.1 ,0.00013
988.2 ,0.00013
988.3 ,0.00013
988.4 ,0.00013
988.5 ,0.00013
988.6 ,0.00013
988.7 ,0.00013
988.8 ,0.00013
988.9 ,0.00013
989.0 ,0.00013
989.1 ,0.00013
989.2 ,0.00013
989.3 ,0.00013
989.4 ,0.00013
989.5 ,0.00013
989.6 ,0.00013
989.7 ,0.00013
989.8 ,0.00013
989.9 ,0.00013
990.0 ,0.00013
990.1 ,0.00013
990.2 ,0.00013
990.3 ,0.00013
990.4 ,0.00013
990.5 ,0.00013
990.6 ,0.00012
990.7 ,0.00012
990.8 ,0.00012
990.9 ,0.00012
991.0 ,0.00012
991.1 ,0.00012
991.2 ,0.00012
991.3 ,0.00012
991.4 ,0.00012
991.5 ,0.00012
991.6 ,0.00012
991.7 ,0.00012
991.8 ,0.00012
991.9 ,0.00012
992.0 ,0.00012
992.1 ,0.00012
992.2 ,0.00012
992.3 ,0.00012
992.4 ,0.00012
992.5 ,0.00012
992.6 ,0.00012
992.7 ,0.00012
992.8 ,0.00012
992.9 ,0.00011
993.0 ,0.00011
993.1 ,0.00011
993.2 ,0.00011
993.3 ,0.00011
993.4 ,0.00011
993.5 ,0.00011
993.6 ,0.00011
993.7 ,0.00011
993.8 ,0.00011
993.9 ,0.00011
994.0 ,0.00011
994.1 ,0.00011
994.2 ,0.00011
994.3 ,0.0001
994.4 ,0.0001
994.5 ,0.0001
994.6 ,0.0001
994.7 ,0.0001
994.8 ,0.0001
994.9 ,0.0001
995.0 ,0.0001
995.1 ,0.0001
995.2 ,0.0001
995.3 ,0.0001
995.4 ,0.0001
995.5 ,0.0001
995.6 ,0.00009
995.7 ,0.00009
995.8 ,0.00009
995.9 ,0.00009
996.0 ,0.00009
996.1 ,0.00009
996.2 ,0.00009
996.3 ,0.00009
996.4 ,0.00009
996.5 ,0.00009
996.6 ,0.00009
996.7 ,0.00009
996.8 ,0.00009
996.9 ,0.00008
997.0 ,0.00008
997.1 ,0.00008
997.2 ,0.00008
997.3 ,0.00008
997.4 ,0.00008
997.5 ,0.00008
997.6 ,0.00008
997.7 ,0.00008
997.8 ,0.00008
997.9 ,0.00008
998.0 ,0.00008
998.1 ,0.00008
998.2 ,0.00008
998.3 ,0.00008
998.4 ,0.00007
998.5 ,0.00007
998.6 ,0.00007
998.7 ,0.00007
998.8 ,0.00007
998.9 ,0.00007
999.0 ,0.00007
999.1 ,0.00007
999.2 ,0.00007
999.3 ,0.00007
999.4 ,0.00007
999.5 ,0.00007
999.6 ,0.00007
999.7 ,0.00007
999.8 ,0.00007
999.9 ,0.00007
1000.0 ,0.00007
1000.1 ,0.00007
1000.2 ,0.00007
1000.3 ,0.00007
1000.4 ,0.00007
1000.5 ,0.00006
1000.6 ,0.00006
1000.7 ,0.00006
1000.8 ,0.00006
1000.9 ,0.00006
1001.0 ,0.00006
1001.1 ,0.00006
1001.2 ,0.00006
1001.3 ,0.00006
1001.4 ,0.00006
1001.5 ,0.00006
1001.6 ,0.00006
1001.7 ,0.00006
1001.8 ,0.00006
1001.9 ,0.00006
1002.0 ,0.00006
1002.1 ,0.00006
1002.2 ,0.00006
1002.3 ,0.00006
1002.4 ,0.00006
1002.5 ,0.00006
1002.6 ,0.00006
1002.7 ,0.00006
1002.8 ,0.00006
1002.9 ,0.00006
1003.0 ,0.00006
1003.1 ,0.00006
1003.2 ,0.00006
1003.3 ,0.00006
1003.4 ,0.00006
1003.5 ,0.00006
1003.6 ,0.00006
1003.7 ,0.00006
1003.8 ,0.00006
1003.9 ,0.00006
1004.0 ,0.00006
1004.1 ,0.00006
1004.2 ,0.00006
1004.3 ,0.00006
1004.4 ,0.00006
1004.5 ,0.00006
1004.6 ,0.00006
1004.7 ,0.00006
1004.8 ,0.00006
1004.9 ,0.00006
1005.0 ,0.00006
1005.1 ,0.00006
1005.2 ,0.00006
1005.3 ,0.00006
1005.4 ,0.00006
1005.5 ,0.00006
1005.6 ,0.00006
1005.7 ,0.00006
1005.8 ,0.00006
1005.9 ,0.00006
1006.0 ,0.00006
1006.1 ,0.00006
1006.2 ,0.00006
1006.3 ,0.00006
1006.4 ,0.00006
1006.5 ,0.00007
1006.6 ,0.00007
1006.7 ,0.00007
1006.8 ,0.00007
1006.9 ,0.00007
1007.0 ,0.00007
1007.1 ,0.00007
1007.2 ,0.00007
1007.3 ,0.00007
1007.4 ,0.00007
1007.5 ,0.00007
1007.6 ,0.00007
1007.7 ,0.00007
1007.8 ,0.00007
1007.9 ,0.00007
1008.0 ,0.00007
1008.1 ,0.00007
1008.2 ,0.00007
1008.3 ,0.00007
1008.4 ,0.00008
1008.5 ,0.00008
1008.6 ,0.00008
1008.7 ,0.00008
1008.8 ,0.00008
1008.9 ,0.00008
1009.0 ,0.00008
1009.1 ,0.00008
1009.2 ,0.00008
1009.3 ,0.00008
1009.4 ,0.00008
1009.5 ,0.00008
1009.6 ,0.00009
1009.7 ,0.00009
1009.8 ,0.00009
1009.9 ,0.00009
1010.0 ,0.00009
1010.1 ,0.00009
1010.2 ,0.00009
1010.3 ,0.00009
1010.4 ,0.00009
1010.5 ,0.0001
1010.6 ,0.0001
1010.7 ,0.0001
1010.8 ,0.0001
1010.9 ,0.0001
1011.0 ,0.0001
1011.1 ,0.0001
1011.2 ,0.00011
1011.3 ,0.00011
1011.4 ,0.00011
1011.5 ,0.00011
1011.6 ,0.00011
1011.7 ,0.00011
1011.8 ,0.00012
1011.9 ,0.00012
1012.0 ,0.00012
1012.1 ,0.00012
1012.2 ,0.00012
1012.3 ,0.00013
1012.4 ,0.00013
1012.5 ,0.00013
1012.6 ,0.00013
1012.7 ,0.00013
1012.8 ,0.00014
1012.9 ,0.00014
1013.0 ,0.00014
1013.1 ,0.00014
1013.2 ,0.00015
1013.3 ,0.00015
1013.4 ,0.00015
1013.5 ,0.00015
1013.6 ,0.00016
1013.7 ,0.00016
1013.8 ,0.00016
1013.9 ,0.00017
1014.0 ,0.00017
1014.1 ,0.00017
1014.2 ,0.00017
1014.3 ,0.00018
1014.4 ,0.00018
1014.5 ,0.00018
1014.6 ,0.00019
1014.7 ,0.00019
1014.8 ,0.00019
1014.9 ,0.0002
1015.0 ,0.0002
1015.1 ,0.00021
1015.2 ,0.00021
1015.3 ,0.00021
1015.4 ,0.00022
1015.5 ,0.00022
1015.6 ,0.00023
1015.7 ,0.00023
1015.8 ,0.00023
1015.9 ,0.00024
1016.0 ,0.00024
1016.1 ,0.00025
1016.2 ,0.00025
1016.3 ,0.00026
1016.4 ,0.00026
1016.5 ,0.00027
1016.6 ,0.00027
1016.7 ,0.00028
1016.8 ,0.00028
1016.9 ,0.00029
1017.0 ,0.00029
1017.1 ,0.0003
1017.2 ,0.0003
1017.3 ,0.00031
1017.4 ,0.00031
1017.5 ,0.00032
1017.6 ,0.00033
1017.7 ,0.00033
1017.8 ,0.00034
1017.9 ,0.00034
1018.0 ,0.00035
1018.1 ,0.00035
1018.2 ,0.00036
1018.3 ,0.00037
1018.4 ,0.00037
1018.5 ,0.00038
1018.6 ,0.00038
1018.7 ,0.00039
1018.8 ,0.0004
1018.9 ,0.0004
1019.0 ,0.00041
1019.1 ,0.00041
1019.2 ,0.00042
1019.3 ,0.00043
1019.4 ,0.00043
1019.5 ,0.00044
1019.6 ,0.00044
1019.7 ,0.00045
1019.8 ,0.00046
1019.9 ,0.00046
1020.0 ,0.00047
1020.1 ,0.00048
1020.2 ,0.00048
1020.3 ,0.00049
1020.4 ,0.00049
1020.5 ,0.0005
1020.6 ,0.00051
1020.7 ,0.00051
1020.8 ,0.00052
1020.9 ,0.00052
1021.0 ,0.00053
1021.1 ,0.00054
1021.2 ,0.00054
1021.3 ,0.00055
1021.4 ,0.00056
1021.5 ,0.00056
1021.6 ,0.00057
1021.7 ,0.00057
1021.8 ,0.00058
1021.9 ,0.00059
1022.0 ,0.00059
1022.1 ,0.0006
1022.2 ,0.00061
1022.3 ,0.00061
1022.4 ,0.00062
1022.5 ,0.00062
1022.6 ,0.00063
1022.7 ,0.00064
1022.8 ,0.00064
1022.9 ,0.00065
1023.0 ,0.00066
1023.1 ,0.00066
1023.2 ,0.00067
1023.3 ,0.00068
1023.4 ,0.00068
1023.5 ,0.00069
1023.6 ,0.0007
1023.7 ,0.0007
1023.8 ,0.00071
1023.9 ,0.00072
1024.0 ,0.00073
1024.1 ,0.00073
1024.2 ,0.00074
1024.3 ,0.00075
1024.4 ,0.00076
1024.5 ,0.00076
1024.6 ,0.00077
1024.7 ,0.00078
1024.8 ,0.00079
1024.9 ,0.0008
1025.0 ,0.00081
1025.1 ,0.00081
1025.2 ,0.00082
1025.3 ,0.00083
1025.4 ,0.00084
1025.5 ,0.00085
1025.6 ,0.00086
1025.7 ,0.00087
1025.8 ,0.00088
1025.9 ,0.00089
1026.0 ,0.0009
1026.1 ,0.00091
1026.2 ,0.00093
1026.3 ,0.00094
1026.4 ,0.00095
1026.5 ,0.00096
1026.6 ,0.00097
1026.7 ,0.00099
1026.8 ,0.001
1026.9 ,0.00101
1027.0 ,0.00103
1027.1 ,0.00104
1027.2 ,0.00106
1027.3 ,0.00107
1027.4 ,0.00109
1027.5 ,0.0011
1027.6 ,0.00112
1027.7 ,0.00113
1027.8 ,0.00115
1027.9 ,0.00117
1028.0 ,0.00119
1028.1 ,0.0012
1028.2 ,0.00122
1028.3 ,0.00124
1028.4 ,0.00126
1028.5 ,0.00128
1028.6 ,0.0013
1028.7 ,0.00132
1028.8 ,0.00135
1028.9 ,0.00137
1029.0 ,0.00139
1029.1 ,0.00141
1029.2 ,0.00144
1029.3 ,0.00146
1029.4 ,0.00149
1029.5 ,0.00151
1029.6 ,0.00154
1029.7 ,0.00157
1029.8 ,0.0016
1029.9 ,0.00163
1030.0 ,0.00166
1030.1 ,0.00169
1030.2 ,0.00172
1030.3 ,0.00175
1030.4 ,0.00178
1030.5 ,0.00182
1030.6 ,0.00185
1030.7 ,0.00188
1030.8 ,0.00192
1030.9 ,0.00196
1031.0 ,0.002
1031.1 ,0.00203
1031.2 ,0.00207
1031.3 ,0.00211
1031.4 ,0.00215
1031.5 ,0.0022
1031.6 ,0.00224
1031.7 ,0.00228
1031.8 ,0.00233
1031.9 ,0.00238
1032.0 ,0.00242
1032.1 ,0.00247
1032.2 ,0.00252
1032.3 ,0.00257
1032.4 ,0.00262
1032.5 ,0.00267
1032.6 ,0.00272
1032.7 ,0.00278
1032.8 ,0.00283
1032.9 ,0.00289
1033.0 ,0.00294
1033.1 ,0.003
1033.2 ,0.00306
1033.3 ,0.00312
1033.4 ,0.00318
1033.5 ,0.00324
1033.6 ,0.0033
1033.7 ,0.00336
1033.8 ,0.00343
1033.9 ,0.00349
1034.0 ,0.00355
1034.1 ,0.00362
1034.2 ,0.00369
1034.3 ,0.00375
1034.4 ,0.00382
1034.5 ,0.00389
1034.6 ,0.00395
1034.7 ,0.00402
1034.8 ,0.00409
1034.9 ,0.00416
1035.0 ,0.00423
1035.1 ,0.0043
1035.2 ,0.00437
1035.3 ,0.00444
1035.4 ,0.00451
1035.5 ,0.00459
1035.6 ,0.00466
1035.7 ,0.00473
1035.8 ,0.0048
1035.9 ,0.00487
1036.0 ,0.00494
1036.1 ,0.00501
1036.2 ,0.00509
1036.3 ,0.00516
1036.4 ,0.00523
1036.5 ,0.0053
1036.6 ,0.00537
1036.7 ,0.00544
1036.8 ,0.00551
1036.9 ,0.00558
1037.0 ,0.00565
1037.1 ,0.00572
1037.2 ,0.00579
1037.3 ,0.00586
1037.4 ,0.00593
1037.5 ,0.006
1037.6 ,0.00607
1037.7 ,0.00614
1037.8 ,0.00621
1037.9 ,0.00628
1038.0 ,0.00634
1038.1 ,0.00641
1038.2 ,0.00648
1038.3 ,0.00655
1038.4 ,0.00661
1038.5 ,0.00668
1038.6 ,0.00675
1038.7 ,0.00682
1038.8 ,0.00688
1038.9 ,0.00695
1039.0 ,0.00702
1039.1 ,0.00709
1039.2 ,0.00715
1039.3 ,0.00722
1039.4 ,0.00729
1039.5 ,0.00736
1039.6 ,0.00742
1039.7 ,0.00749
1039.8 ,0.00756
1039.9 ,0.00763
1040.0 ,0.0077
1040.1 ,0.00777
1040.2 ,0.00784
1040.3 ,0.00791
1040.4 ,0.00798
1040.5 ,0.00805
1040.6 ,0.00812
1040.7 ,0.00819
1040.8 ,0.00826
1040.9 ,0.00833
1041.0 ,0.0084
1041.1 ,0.00848
1041.2 ,0.00855
1041.3 ,0.00862
1041.4 ,0.00869
1041.5 ,0.00877
1041.6 ,0.00884
1041.7 ,0.00892
1041.8 ,0.00899
1041.9 ,0.00906
1042.0 ,0.00914
1042.1 ,0.00921
1042.2 ,0.00929
1042.3 ,0.00936
1042.4 ,0.00944
1042.5 ,0.00951
1042.6 ,0.00958
1042.7 ,0.00966
1042.8 ,0.00973
1042.9 ,0.0098
1043.0 ,0.00988
1043.1 ,0.00995
1043.2 ,0.01002
1043.3 ,0.01009
1043.4 ,0.01016
1043.5 ,0.01023
1043.6 ,0.0103
1043.7 ,0.01036
1043.8 ,0.01043
1043.9 ,0.01049
1044.0 ,0.01055
1044.1 ,0.01061
1044.2 ,0.01067
1044.3 ,0.01073
1044.4 ,0.01078
1044.5 ,0.01083
1044.6 ,0.01088
1044.7 ,0.01093
1044.8 ,0.01098
1044.9 ,0.01102
1045.0 ,0.01106
1045.1 ,0.0111
1045.2 ,0.01114
1045.3 ,0.01117
1045.4 ,0.0112
1045.5 ,0.01123
1045.6 ,0.01125
1045.7 ,0.01127
1045.8 ,0.01129
1045.9 ,0.01131
1046.0 ,0.01132
1046.1 ,0.01133
1046.2 ,0.01133
1046.3 ,0.01134
1046.4 ,0.01134
1046.5 ,0.01133
1046.6 ,0.01133
1046.7 ,0.01132
1046.8 ,0.01131
1046.9 ,0.01129
1047.0 ,0.01128
1047.1 ,0.01126
1047.2 ,0.01123
1047.3 ,0.01121
1047.4 ,0.01118
1047.5 ,0.01115
1047.6 ,0.01112
1047.7 ,0.01109
1047.8 ,0.01105
1047.9 ,0.01101
1048.0 ,0.01097
1048.1 ,0.01093
1048.2 ,0.01089
1048.3 ,0.01085
1048.4 ,0.0108
1048.5 ,0.01075
1048.6 ,0.01071
1048.7 ,0.01066
1048.8 ,0.01061
1048.9 ,0.01056
1049.0 ,0.01051
1049.1 ,0.01045
1049.2 ,0.0104
1049.3 ,0.01035
1049.4 ,0.0103
1049.5 ,0.01025
1049.6 ,0.01019
1049.7 ,0.01014
1049.8 ,0.01009
1049.9 ,0.01004
1050.0 ,0.00999
1050.1 ,0.00994
1050.2 ,0.00989
1050.3 ,0.00984
1050.4 ,0.00979
1050.5 ,0.00974
1050.6 ,0.00969
1050.7 ,0.00965
1050.8 ,0.0096
1050.9 ,0.00956
1051.0 ,0.00952
1051.1 ,0.00947
1051.2 ,0.00943
1051.3 ,0.00939
1051.4 ,0.00935
1051.5 ,0.00932
1051.6 ,0.00928
1051.7 ,0.00925
1051.8 ,0.00921
1051.9 ,0.00918
1052.0 ,0.00915
1052.1 ,0.00912
1052.2 ,0.00909
1052.3 ,0.00907
1052.4 ,0.00904
1052.5 ,0.00902
1052.6 ,0.009
1052.7 ,0.00898
1052.8 ,0.00896
1052.9 ,0.00894
1053.0 ,0.00892
1053.1 ,0.00891
1053.2 ,0.0089
1053.3 ,0.00889
1053.4 ,0.00888
1053.5 ,0.00887
1053.6 ,0.00886
1053.7 ,0.00886
1053.8 ,0.00885
1053.9 ,0.00885
1054.0 ,0.00885
1054.1 ,0.00885
1054.2 ,0.00886
1054.3 ,0.00886
1054.4 ,0.00887
1054.5 ,0.00887
1054.6 ,0.00888
1054.7 ,0.00889
1054.8 ,0.00891
1054.9 ,0.00892
1055.0 ,0.00894
1055.1 ,0.00895
1055.2 ,0.00897
1055.3 ,0.00899
1055.4 ,0.00901
1055.5 ,0.00903
1055.6 ,0.00906
1055.7 ,0.00908
1055.8 ,0.00911
1055.9 ,0.00914
1056.0 ,0.00917
1056.1 ,0.0092
1056.2 ,0.00923
1056.3 ,0.00926
1056.4 ,0.0093
1056.5 ,0.00933
1056.6 ,0.00937
1056.7 ,0.00941
1056.8 ,0.00945
1056.9 ,0.00949
1057.0 ,0.00953
1057.1 ,0.00957
1057.2 ,0.00961
1057.3 ,0.00966
1057.4 ,0.0097
1057.5 ,0.00975
1057.6 ,0.00979
1057.7 ,0.00984
1057.8 ,0.00989
1057.9 ,0.00993
1058.0 ,0.00998
1058.1 ,0.01003
1058.2 ,0.01008
1058.3 ,0.01013
1058.4 ,0.01018
1058.5 ,0.01023
1058.6 ,0.01028
1058.7 ,0.01033
1058.8 ,0.01038
1058.9 ,0.01043
1059.0 ,0.01048
1059.1 ,0.01053
1059.2 ,0.01057
1059.3 ,0.01062
1059.4 ,0.01067
1059.5 ,0.01071
1059.6 ,0.01076
1059.7 ,0.0108
1059.8 ,0.01085
1059.9 ,0.01089
1060.0 ,0.01093
1060.1 ,0.01097
1060.2 ,0.01101
1060.3 ,0.01104
1060.4 ,0.01108
1060.5 ,0.01111
1060.6 ,0.01114
1060.7 ,0.01117
1060.8 ,0.0112
1060.9 ,0.01123
1061.0 ,0.01125
1061.1 ,0.01127
1061.2 ,0.01129
1061.3 ,0.01131
1061.4 ,0.01132
1061.5 ,0.01134
1061.6 ,0.01135
1061.7 ,0.01136
1061.8 ,0.01136
1061.9 ,0.01137
1062.0 ,0.01137
1062.1 ,0.01137
1062.2 ,0.01136
1062.3 ,0.01136
1062.4 ,0.01135
1062.5 ,0.01134
1062.6 ,0.01132
1062.7 ,0.01131
1062.8 ,0.01129
1062.9 ,0.01127
1063.0 ,0.01125
1063.1 ,0.01122
1063.2 ,0.0112
1063.3 ,0.01117
1063.4 ,0.01114
1063.5 ,0.01111
1063.6 ,0.01108
1063.7 ,0.01104
1063.8 ,0.011
1063.9 ,0.01097
1064.0 ,0.01093
1064.1 ,0.01089
1064.2 ,0.01084
1064.3 ,0.0108
1064.4 ,0.01076
1064.5 ,0.01071
1064.6 ,0.01067
1064.7 ,0.01062
1064.8 ,0.01057
1064.9 ,0.01052
1065.0 ,0.01048
1065.1 ,0.01043
1065.2 ,0.01038
1065.3 ,0.01033
1065.4 ,0.01028
1065.5 ,0.01023
1065.6 ,0.01018
1065.7 ,0.01013
1065.8 ,0.01008
1065.9 ,0.01003
1066.0 ,0.00998
1066.1 ,0.00993
1066.2 ,0.00988
1066.3 ,0.00983
1066.4 ,0.00979
1066.5 ,0.00974
1066.6 ,0.00969
1066.7 ,0.00965
1066.8 ,0.0096
1066.9 ,0.00956
1067.0 ,0.00951
1067.1 ,0.00947
1067.2 ,0.00943
1067.3 ,0.00939
1067.4 ,0.00935
1067.5 ,0.00931
1067.6 ,0.00927
1067.7 ,0.00923
1067.8 ,0.0092
1067.9 ,0.00916
1068.0 ,0.00913
1068.1 ,0.0091
1068.2 ,0.00907
1068.3 ,0.00903
1068.4 ,0.00901
1068.5 ,0.00898
1068.6 ,0.00895
1068.7 ,0.00893
1068.8 ,0.0089
1068.9 ,0.00888
1069.0 ,0.00886
1069.1 ,0.00884
1069.2 ,0.00882
1069.3 ,0.0088
1069.4 ,0.00878
1069.5 ,0.00877
1069.6 ,0.00875
1069.7 ,0.00874
1069.8 ,0.00873
1069.9 ,0.00872
1070.0 ,0.00871
1070.1 ,0.0087
1070.2 ,0.00869
1070.3 ,0.00869
1070.4 ,0.00869
1070.5 ,0.00868
1070.6 ,0.00868
1070.7 ,0.00868
1070.8 ,0.00868
1070.9 ,0.00869
1071.0 ,0.00869
1071.1 ,0.00869
1071.2 ,0.0087
1071.3 ,0.00871
1071.4 ,0.00872
1071.5 ,0.00873
1071.6 ,0.00874
1071.7 ,0.00875
1071.8 ,0.00877
1071.9 ,0.00878
1072.0 ,0.0088
1072.1 ,0.00882
1072.2 ,0.00884
1072.3 ,0.00886
1072.4 ,0.00888
1072.5 ,0.0089
1072.6 ,0.00892
1072.7 ,0.00895
1072.8 ,0.00897
1072.9 ,0.009
1073.0 ,0.00903
1073.1 ,0.00906
1073.2 ,0.00909
1073.3 ,0.00912
1073.4 ,0.00915
1073.5 ,0.00918
1073.6 ,0.00922
1073.7 ,0.00925
1073.8 ,0.00929
1073.9 ,0.00933
1074.0 ,0.00936
1074.1 ,0.0094
1074.2 ,0.00944
1074.3 ,0.00948
1074.4 ,0.00952
1074.5 ,0.00956
1074.6 ,0.00961
1074.7 ,0.00965
1074.8 ,0.00969
1074.9 ,0.00974
1075.0 ,0.00978
1075.1 ,0.00983
1075.2 ,0.00987
1075.3 ,0.00992
1075.4 ,0.00996
1075.5 ,0.01001
1075.6 ,0.01005
1075.7 ,0.0101
1075.8 ,0.01015
1075.9 ,0.01019
1076.0 ,0.01024
1076.1 ,0.01029
1076.2 ,0.01033
1076.3 ,0.01038
1076.4 ,0.01042
1076.5 ,0.01047
1076.6 ,0.01051
1076.7 ,0.01056
1076.8 ,0.0106
1076.9 ,0.01064
1077.0 ,0.01069
1077.1 ,0.01073
1077.2 ,0.01077
1077.3 ,0.01081
1077.4 ,0.01085
1077.5 ,0.01089
1077.6 ,0.01092
1077.7 ,0.01096
1077.8 ,0.01099
1077.9 ,0.01103
1078.0 ,0.01106
1078.1 ,0.01109
1078.2 ,0.01112
1078.3 ,0.01115
1078.4 ,0.01117
1078.5 ,0.0112
1078.6 ,0.01122
1078.7 ,0.01124
1078.8 ,0.01126
1078.9 ,0.01128
1079.0 ,0.0113
1079.1 ,0.01131
1079.2 ,0.01133
1079.3 ,0.01134
1079.4 ,0.01135
1079.5 ,0.01135
1079.6 ,0.01136
1079.7 ,0.01136
1079.8 ,0.01137
1079.9 ,0.01137
1080.0 ,0.01137
1080.1 ,0.01136
1080.2 ,0.01136
1080.3 ,0.01135
1080.4 ,0.01134
1080.5 ,0.01133
1080.6 ,0.01132
1080.7 ,0.01131
1080.8 ,0.01129
1080.9 ,0.01127
1081.0 ,0.01126
1081.1 ,0.01124
1081.2 ,0.01121
1081.3 ,0.01119
1081.4 ,0.01117
1081.5 ,0.01114
1081.6 ,0.01112
1081.7 ,0.01109
1081.8 ,0.01106
1081.9 ,0.01103
1082.0 ,0.011
1082.1 ,0.01097
1082.2 ,0.01093
1082.3 ,0.0109
1082.4 ,0.01087
1082.5 ,0.01083
1082.6 ,0.0108
1082.7 ,0.01076
1082.8 ,0.01072
1082.9 ,0.01069
1083.0 ,0.01065
1083.1 ,0.01061
1083.2 ,0.01057
1083.3 ,0.01053
1083.4 ,0.0105
1083.5 ,0.01046
1083.6 ,0.01042
1083.7 ,0.01038
1083.8 ,0.01034
1083.9 ,0.0103
1084.0 ,0.01026
1084.1 ,0.01022
1084.2 ,0.01019
1084.3 ,0.01015
1084.4 ,0.01011
1084.5 ,0.01007
1084.6 ,0.01004
1084.7 ,0.01
1084.8 ,0.00996
1084.9 ,0.00993
1085.0 ,0.00989
1085.1 ,0.00986
1085.2 ,0.00982
1085.3 ,0.00979
1085.4 ,0.00975
1085.5 ,0.00972
1085.6 ,0.00969
1085.7 ,0.00966
1085.8 ,0.00963
1085.9 ,0.0096
1086.0 ,0.00957
1086.1 ,0.00954
1086.2 ,0.00951
1086.3 ,0.00949
1086.4 ,0.00946
1086.5 ,0.00943
1086.6 ,0.00941
1086.7 ,0.00939
1086.8 ,0.00936
1086.9 ,0.00934
1087.0 ,0.00932
1087.1 ,0.0093
1087.2 ,0.00928
1087.3 ,0.00926
1087.4 ,0.00924
1087.5 ,0.00923
1087.6 ,0.00921
1087.7 ,0.0092
1087.8 ,0.00918
1087.9 ,0.00917
1088.0 ,0.00916
1088.1 ,0.00914
1088.2 ,0.00913
1088.3 ,0.00912
1088.4 ,0.00911
1088.5 ,0.0091
1088.6 ,0.0091
1088.7 ,0.00909
1088.8 ,0.00908
1088.9 ,0.00908
1089.0 ,0.00908
1089.1 ,0.00907
1089.2 ,0.00907
1089.3 ,0.00907
1089.4 ,0.00907
1089.5 ,0.00907
1089.6 ,0.00907
1089.7 ,0.00907
1089.8 ,0.00907
1089.9 ,0.00907
1090.0 ,0.00908
1090.1 ,0.00908
1090.2 ,0.00909
1090.3 ,0.00909
1090.4 ,0.0091
1090.5 ,0.00911
1090.6 ,0.00911
1090.7 ,0.00912
1090.8 ,0.00913
1090.9 ,0.00914
1091.0 ,0.00915
1091.1 ,0.00916
1091.2 ,0.00918
1091.3 ,0.00919
1091.4 ,0.0092
1091.5 ,0.00921
1091.6 ,0.00923
1091.7 ,0.00924
1091.8 ,0.00926
1091.9 ,0.00927
1092.0 ,0.00929
1092.1 ,0.0093
1092.2 ,0.00932
1092.3 ,0.00934
1092.4 ,0.00936
1092.5 ,0.00937
1092.6 ,0.00939
1092.7 ,0.00941
1092.8 ,0.00943
1092.9 ,0.00945
1093.0 ,0.00947
1093.1 ,0.00949
1093.2 ,0.00951
1093.3 ,0.00953
1093.4 ,0.00955
1093.5 ,0.00957
1093.6 ,0.00959
1093.7 ,0.00961
1093.8 ,0.00963
1093.9 ,0.00965
1094.0 ,0.00967
1094.1 ,0.00969
1094.2 ,0.00971
1094.3 ,0.00973
1094.4 ,0.00975
1094.5 ,0.00977
1094.6 ,0.00979
1094.7 ,0.00981
1094.8 ,0.00983
1094.9 ,0.00985
1095.0 ,0.00987
1095.1 ,0.00989
1095.2 ,0.00991
1095.3 ,0.00992
1095.4 ,0.00994
1095.5 ,0.00996
1095.6 ,0.00998
1095.7 ,0.00999
1095.8 ,0.01001
1095.9 ,0.01003
1096.0 ,0.01004
1096.1 ,0.01006
1096.2 ,0.01007
1096.3 ,0.01009
1096.4 ,0.0101
1096.5 ,0.01011
1096.6 ,0.01013
1096.7 ,0.01014
1096.8 ,0.01015
1096.9 ,0.01016
1097.0 ,0.01017
1097.1 ,0.01018
1097.2 ,0.01019
1097.3 ,0.0102
1097.4 ,0.01021
1097.5 ,0.01022
1097.6 ,0.01023
1097.7 ,0.01023
1097.8 ,0.01024
1097.9 ,0.01024
1098.0 ,0.01025
1098.1 ,0.01025
1098.2 ,0.01026
1098.3 ,0.01026
1098.4 ,0.01026
1098.5 ,0.01026
1098.6 ,0.01026
1098.7 ,0.01027
1098.8 ,0.01027
1098.9 ,0.01026
1099.0 ,0.01026
1099.1 ,0.01026
1099.2 ,0.01026
1099.3 ,0.01026
1099.4 ,0.01025
1099.5 ,0.01025
1099.6 ,0.01025
1099.7 ,0.01024
1099.8 ,0.01024
1099.9 ,0.01023
1100.0 ,0.01023
